%OpenBCI Raw EXG Data
%Number of channels = 16
%Sample Rate = 125 Hz
%Board = OpenBCI_GUI$BoardCytonSerialDaisy
Sample Index, EXG Channel 0, EXG Channel 1, EXG Channel 2, EXG Channel 3, EXG Channel 4, EXG Channel 5, EXG Channel 6, EXG Channel 7, EXG Channel 8, EXG Channel 9, EXG Channel 10, EXG Channel 11, EXG Channel 12, EXG Channel 13, EXG Channel 14, EXG Channel 15, Accel Channel 0, Accel Channel 1, Accel Channel 2, Other, Other, Other, Other, Other, Other, Other, Analog Channel 0, Analog Channel 1, Analog Channel 2, Timestamp, Other, Timestamp (Formatted)
0.0, 73969.34318177024, 68914.1608970357, -19239.48755735011, -14280.73069819578, 33635.62031216864, 31421.680023870475, -187500.02235174447, 26514.15336300771, 0.0, 0.0, 0.0, 0.0, 0.0, 0.0, 0.0, 0.0, 0.0, 0.0, 0.0, 192.0, 0.0, 0.0, 0.0, 0.0, 0.0, 0.0, 0.0, 0.0, 0.0, 1.695754520334022E9, 0.0, 2023-09-26 13:55:20.334
194.0, 73981.211958076, 68923.25805702902, -19234.056083447467, -14283.278797063685, 33641.38706223811, 31432.20769550892, -187500.02235174447, 26528.994921326033, 45511.884452329214, 34512.81452331716, 4474.059280640993, -300.78742513506717, 49593.53650731284, 35947.952979559064, 20908.04528093878, -6538.846378188894, 0.0, 0.0, 0.0, 192.0, 0.0, 0.0, 0.0, 0.0, 0.0, 0.0, 0.0, 0.0, 0.0, 1.69575452033406E9, 0.0, 2023-09-26 13:55:20.334
196.0, 73977.54627198532, 68911.8139638679, -19229.85395548987, -14287.659738976925, 33639.33070174822, 31436.655692655528, -187500.02235174447, 26518.91428457669, 45512.77852210743, 34491.669773062444, 4468.292530571524, -310.8457101399553, 49591.77071950087, 35941.314511455836, 20911.37569086262, -6545.015459658559, 0.128, 1.02, 0.07200000000000001, 192.0, 2.0, 0.0, 15.5, 112.0, 1.0, 32.0, 0.0, 0.0, 0.0, 1.695754520334071E9, 0.0, 2023-09-26 13:55:20.334
198.0, 73980.54140574235, 68908.6623678997, -19235.173670670232, -14304.02121591821, 33624.2879777298, 31427.782050106773, -187500.02235174447, 26529.844287615335, 45509.33635346131, 34502.62212784554, 4461.4528967682, -317.1041985874413, 49604.42180686257, 35928.104630482754, 20909.744013517382, -6553.665584762763, 0.128, 1.02, 0.07200000000000001, 192.0, 0.0, 0.0, 0.0, 0.0, 0.0, 0.0, 0.0, 0.0, 0.0, 1.695754520334081E9, 0.0, 2023-09-26 13:55:20.334
200.0, 73986.10699011172, 68894.29019621495, -19231.37387411283, -14304.065919407121, 33625.003233552365, 31422.663500626506, -187500.02235174447, 26507.492543160028, 45506.20710923757, 34474.01189494275, 4448.511236728577, -328.88356791538814, 49601.69489403903, 35908.12217093971, 20902.412641336043, -6575.905570495793, 0.128, 1.02, 0.07200000000000001, 192.0, 0.0, 0.0, 0.0, 0.0, 0.0, 0.0, 0.0, 0.0, 0.0, 1.69575452033409E9, 0.0, 2023-09-26 13:55:20.334
202.0, 74004.5695310318, 68914.18324878017, -19216.554667538963, -14291.459535534328, 33640.42593722653, 31438.17561127849, -187500.02235174447, 26523.272874745475, 45516.06422854236, 34478.10226417807, 4454.546207731511, -314.80196890854467, 49617.184652946555, 35937.00062477597, 20927.17837419252, -6560.371108099354, 0.128, 1.02, 0.07200000000000001, 192.0, 0.0, 0.0, 0.0, 0.0, 0.0, 0.0, 0.0, 0.0, 0.0, 1.695754520334101E9, 0.0, 2023-09-26 13:55:20.334
204.0, 74036.95720874754, 68940.11127234832, -19194.94053065068, -14271.588834713559, 33659.2461060579, 31459.521527233308, -187500.02235174447, 26518.24373224303, 45529.028240326435, 34478.72811302282, 4465.945597403717, -305.0342565815755, 49628.49463564094, 35945.44958418007, 20945.05976975677, -6548.837607960416, 0.128, 1.02, 0.07200000000000001, 192.0, 0.0, 0.0, 0.0, 0.0, 0.0, 0.0, 0.0, 0.0, 0.0, 1.69575452033411E9, 0.0, 2023-09-26 13:55:20.334
206.0, 74018.85229573873, 68922.83337388436, -19214.051272159966, -14294.991111158266, 33651.98178910992, 31442.914181103013, -187500.02235174447, 26530.514839948995, 45543.221598055556, 34506.980718014325, 4472.874638184862, -289.29862848503933, 49648.47709518398, 35961.654598910165, 20966.025706055847, -6532.051447874481, 0.128, 1.018, 0.078, 192.0, 2.0, 0.0, 15.5, 104.0, 1.0, 56.0, 0.0, 0.0, 0.0, 1.695754520334119E9, 0.0, 2023-09-26 13:55:20.334
208.0, 74022.49563008496, 68930.1200425768, -19219.549801295972, -14295.236980347274, 33642.14702154959, 31447.250419527343, -187500.02235174447, 26517.68493863165, 45525.474312958046, 34472.044941430686, 4450.679355940742, -314.37728576389384, 49645.10198177123, 35936.64299686468, 20950.647705870593, -6552.39153532881, 0.128, 1.018, 0.078, 192.0, 0.0, 0.0, 0.0, 0.0, 0.0, 0.0, 0.0, 0.0, 0.0, 1.695754520334129E9, 0.0, 2023-09-26 13:55:20.334
210.0, 74016.25949338192, 68909.98112082257, -19234.70428403667, -14316.426434090905, 33638.88366685911, 31428.206733251423, -187500.02235174447, 26525.77627012447, 45523.507359445975, 34488.69699104989, 4450.947576874206, -299.58043093448055, 49666.626711681696, 35944.01907253493, 20953.66519137206, -6546.267157348056, 0.128, 1.018, 0.078, 192.0, 0.0, 0.0, 0.0, 0.0, 0.0, 0.0, 0.0, 0.0, 0.0, 1.695754520334138E9, 0.0, 2023-09-26 13:55:20.334
0.0, 36978.144881504166, 34441.24423757127, -9661.943872206673, -7169.836124162212, 17039.494757592056, 15641.10256923468, -93750.01117587223, 13272.532912794699, 22754.567593880605, 17236.145405309846, 2218.701209867145, -157.75861236555724, 24831.78226134566, 17957.45855062706, 10470.652338344138, -3283.113632573323, 0.138, 1.014, 0.074, 192.0, 2.0, 40.0, 15.5, 88.0, 1.0, 40.0, 0.0, 0.0, 0.0, 1.695754520426812E9, 0.0, 2023-09-26 13:55:20.426
2.0, 73967.5103387249, 68897.73236486106, -19313.516534986084, -14323.35547487205, 34087.885509477324, 31296.510254920755, -187500.02235174447, 26544.462328489106, 45447.98081493149, 34503.51619762376, 4349.023622158006, -265.5387241290479, 49315.458454544365, 36145.2294761216, 20657.884556994984, -6538.734619466618, 0.138, 1.014, 0.074, 192.0, 0.0, 0.0, 0.0, 0.0, 0.0, 0.0, 0.0, 0.0, 0.0, 1.695754520484961E9, 0.0, 2023-09-26 13:55:20.484
4.0, 73977.18864407405, 68900.74985036252, -19309.40381400631, -14328.07169295212, 34097.56381482647, 31296.487903176298, -187500.02235174447, 26562.187261842166, 45468.61147506374, 34539.92718934145, 4362.5687792979215, -250.42894487726034, 49327.90837620597, 36160.07103443993, 20680.593929361574, -6521.479072747121, 0.138, 1.014, 0.074, 192.0, 0.0, 0.0, 0.0, 0.0, 0.0, 0.0, 0.0, 0.0, 0.0, 1.695754520485033E9, 0.0, 2023-09-26 13:55:20.485
6.0, 73972.65123994961, 68901.84508584083, -19311.86250589639, -14322.55081207166, 34096.35682062588, 31306.47913294782, -187500.02235174447, 26547.904497135223, 45459.894294726175, 34520.72704085434, 4353.113991393327, -254.16168620129662, 49315.1902336109, 36161.70271178517, 20676.727077570806, -6527.178767583224, 0.138, 1.014, 0.074, 192.0, 0.0, 0.0, 0.0, 0.0, 0.0, 0.0, 0.0, 0.0, 0.0, 1.695754520485043E9, 0.0, 2023-09-26 13:55:20.485
8.0, 73970.84074864874, 68898.20175149462, -19307.190991305233, -14334.039608721687, 34096.93796598172, 31292.91162406345, -187500.02235174447, 26550.474947747585, 45462.86707673873, 34543.21289577638, 4358.903093207252, -249.9372064992436, 49311.09986437558, 36168.40823512176, 20686.405382919955, -6528.944555395193, 0.14, 1.018, 0.07200000000000001, 192.0, 2.0, 48.0, 15.5, 104.0, 1.0, 32.0, 0.0, 0.0, 0.0, 1.695754520485053E9, 0.0, 2023-09-26 13:55:20.485
10.0, 73981.74839994292, 68898.40291719472, -19304.15115405931, -14338.889937268488, 34095.32864038094, 31311.418868472443, -187500.02235174447, 26536.68392141866, 45467.00214946296, 34524.43743043392, 4357.584340284388, -250.6077588329028, 49300.773358437225, 36160.07103443993, 20691.456877166853, -6541.774456712539, 0.14, 1.018, 0.07200000000000001, 192.0, 0.0, 0.0, 0.0, 0.0, 0.0, 0.0, 0.0, 0.0, 0.0, 1.695754520485067E9, 0.0, 2023-09-26 13:55:20.485
12.0, 73982.70952495451, 68912.10453654583, -19297.982072589646, -14338.375847146017, 34099.24019566062, 31323.53351396722, -187500.02235174447, 26551.413721014706, 45480.927286258615, 34533.467535193864, 4359.908921707741, -248.19377043172963, 49303.85789917206, 36173.79500553549, 20704.487944184297, -6529.168072839746, 0.14, 1.018, 0.07200000000000001, 192.0, 0.0, 0.0, 0.0, 0.0, 0.0, 0.0, 0.0, 0.0, 0.0, 1.69575452048508E9, 0.0, 2023-09-26 13:55:20.485
14.0, 73977.07688535177, 68899.09582127283, -19303.14532555882, -14346.288364683196, 34088.46665483316, 31315.28572026321, -187500.02235174447, 26537.868563874792, 45477.30630365686, 34538.67549165196, 4355.0585931609385, -253.40172688981616, 49301.77918693772, 36165.033121709006, 20716.33436874561, -6527.692857705696, 0.14, 1.018, 0.07200000000000001, 192.0, 0.0, 0.0, 0.0, 0.0, 0.0, 0.0, 0.0, 0.0, 0.0, 1.695754520485097E9, 0.0, 2023-09-26 13:55:20.485
16.0, 73967.97972535845, 68890.13277174626, -19293.221151020665, -14349.149387973475, 34084.108064664375, 31314.90574060747, -187500.02235174447, 26553.559488482417, 45454.95455920155, 34527.65608163549, 4334.360877795324, -264.19761946172946, 49288.21167805335, 36130.92435967021, 20707.796002363684, -6536.00770664307, 0.14, 1.018, 0.07200000000000001, 192.0, 0.0, 0.0, 0.0, 0.0, 0.0, 0.0, 0.0, 0.0, 0.0, 1.695754520544482E9, 0.0, 2023-09-26 13:55:20.544
18.0, 73995.13709487165, 68912.64097841275, -19278.647813635806, -14328.116396441032, 34105.67749806374, 31330.373147770544, -187500.02235174447, 26549.49147099155, 45466.06337619584, 34530.830029348144, 4348.464828546623, -251.16655244428546, 49274.39829997996, 36138.79217371847, 20739.468424256855, -6512.292505775989, 0.132, 1.02, 0.066, 192.0, 2.0, 16.0, 15.5, 112.0, 1.0, 8.0, 0.0, 0.0, 0.0, 1.695754520544502E9, 0.0, 2023-09-26 13:55:20.544
20.0, 73994.35478381572, 68917.7148244041, -19274.512740911574, -14327.73641678529, 34094.12164618035, 31324.829915145627, -187500.02235174447, 26550.184375069664, 45483.944771760085, 34551.304227269204, 4365.966244455129, -230.78176150104542, 49287.80934665315, 36158.61817105033, 20749.929040661937, -6500.468432959132, 0.132, 1.02, 0.066, 192.0, 0.0, 0.0, 0.0, 0.0, 0.0, 0.0, 0.0, 0.0, 0.0, 1.695754520544513E9, 0.0, 2023-09-26 13:55:20.544
22.0, 73993.19249310404, 68917.78187963746, -19292.461191709186, -14343.449693137372, 34086.38794259881, 31325.29930177919, -187500.02235174447, 26535.1640027957, 45464.14112617268, 34541.02242481976, 4347.347241323858, -258.8555525369111, 49261.72486087381, 36156.45005183817, 20728.2925520292, -6525.6141454713525, 0.132, 1.02, 0.066, 192.0, 0.0, 0.0, 0.0, 0.0, 0.0, 0.0, 0.0, 0.0, 0.0, 1.695754520544523E9, 0.0, 2023-09-26 13:55:20.544
24.0, 73997.6181385062, 68905.84604809833, -19296.77507838906, -14331.379751131506, 34090.679477534235, 31343.091290365614, -187500.02235174447, 26554.051226860433, 45474.7358530445, 34562.03306460775, 4355.215055372126, -233.88865398033312, 49276.63347442549, 36143.01665342053, 20736.562697477664, -6503.642380671786, 0.132, 1.02, 0.066, 192.0, 0.0, 0.0, 0.0, 0.0, 0.0, 0.0, 0.0, 0.0, 0.0, 1.695754520544533E9, 0.0, 2023-09-26 13:55:20.544
26.0, 73993.34895531523, 68904.14731551973, -19291.120087041865, -14344.50022512677, 34081.939945452206, 31325.701633179386, -187500.02235174447, 26550.87727914778, 45464.208181406044, 34535.233323005836, 4345.581453511889, -246.8750175088665, 49263.78122136369, 36137.4287173067, 20729.90187762998, -6515.935840122204, 0.132, 1.02, 0.066, 192.0, 0.0, 0.0, 0.0, 0.0, 0.0, 0.0, 0.0, 0.0, 0.0, 1.695754520544542E9, 0.0, 2023-09-26 13:55:20.544
28.0, 74001.75321123043, 68910.1152312893, -19279.318365969466, -14335.760693044745, 34092.53467232402, 31337.86098216307, -187500.02235174447, 26553.492433249052, 45475.94284724508, 34548.13027955655, 4358.657224018243, -237.12965692635262, 49248.91731130092, 36145.587104032886, 20735.981552121826, -6503.9553050941595, 0.132, 1.014, 0.07200000000000001, 192.0, 2.0, 16.0, 15.5, 88.0, 1.0, 32.0, 0.0, 0.0, 0.0, 1.695754520544585E9, 0.0, 2023-09-26 13:55:20.544
30.0, 73981.27901330937, 68894.2678444705, -19301.983034847144, -14356.816036321645, 34072.909840692264, 31318.124391809037, -187500.02235174447, 26547.25629654602, 45463.247056394466, 34548.80083189021, 4346.788447712475, -250.89833151082178, 49224.37509588899, 36135.171191116715, 20729.164270062956, -6512.7618924095505, 0.132, 1.014, 0.07200000000000001, 192.0, 0.0, 0.0, 0.0, 0.0, 0.0, 0.0, 0.0, 0.0, 0.0, 1.695754520544597E9, 0.0, 2023-09-26 13:55:20.544
32.0, 73993.34895531523, 68898.87230382828, -19290.158962030288, -14342.510919870248, 34094.92630898074, 31335.91638039546, -187500.02235174447, 26550.407892514217, 45460.90012322666, 34543.23524752084, 4344.776790711498, -251.05479372200892, 49204.303229368124, 36129.69501372516, 20724.850383383084, -6514.013590099048, 0.132, 1.014, 0.07200000000000001, 192.0, 0.0, 0.0, 0.0, 0.0, 0.0, 0.0, 0.0, 0.0, 0.0, 1.695754520604876E9, 0.0, 2023-09-26 13:55:20.604
34.0, 73989.63856573564, 68901.84508584083, -19296.350395244408, -14352.12216998603, 34090.72418102314, 31324.04760408969, -187500.02235174447, 26553.738302438058, 45463.64938779466, 34539.97189283036, 4344.754438967042, -245.600968074914, 49203.92324971238, 36121.84955142135, 20728.2925520292, -6510.929049364216, 0.132, 1.014, 0.07200000000000001, 192.0, 0.0, 0.0, 0.0, 0.0, 0.0, 0.0, 0.0, 0.0, 0.0, 1.6957545206049E9, 0.0, 2023-09-26 13:55:20.604
36.0, 73987.06811512329, 68910.18228652267, -19296.708023155694, -14345.707219327358, 34090.970050212156, 31330.66372044846, -187500.02235174447, 26544.30586627792, 45466.443355851574, 34551.237172035835, 4343.838017444375, -238.33665112693922, 49174.307188309096, 36145.87767671081, 20717.94369434639, -6517.9251453787265, 0.132, 1.014, 0.07200000000000001, 192.0, 0.0, 0.0, 0.0, 0.0, 0.0, 0.0, 0.0, 0.0, 0.0, 1.69575452060491E9, 0.0, 2023-09-26 13:55:20.604
38.0, 73973.79117891684, 68898.04528928343, -19303.39119474783, -14357.575995633126, 34086.298535621, 31322.214761044357, -187500.02235174447, 26551.436072759163, 45459.13433541469, 34548.62201793456, 4338.495950519557, -242.94111048473246, 49144.042926316615, 36127.86217067983, 20710.835839609605, -6520.71911343564, 0.132, 1.012, 0.07200000000000001, 192.0, 2.0, 16.0, 15.5, 80.0, 1.0, 32.0, 0.0, 0.0, 0.0, 1.695754520604919E9, 0.0, 2023-09-26 13:55:20.604
40.0, 73970.08078933725, 68892.90438805871, -19309.090889583935, -14363.879187569522, 34074.250945359585, 31318.839647631605, -187500.02235174447, 26544.439976744652, 45449.79130623237, 34529.46657293637, 4327.677706203188, -254.36285190139438, 49114.91860329135, 36122.25188282155, 20698.67649062592, -6530.0174391290475, 0.132, 1.012, 0.07200000000000001, 192.0, 0.0, 0.0, 0.0, 0.0, 0.0, 0.0, 0.0, 0.0, 0.0, 1.695754520604928E9, 0.0, 2023-09-26 13:55:20.604
42.0, 73977.2109958185, 68896.48066717156, -19299.881970868348, -14353.284460697707, 34086.633811787826, 31329.166153569957, -187500.02235174447, 26558.20865132912, 45455.64746327966, 34553.38293950354, 4329.510549248523, -255.16751470178542, 49097.46189087175, 36119.48026650909, 20703.079784283615, -6527.178767583224, 0.132, 1.012, 0.07200000000000001, 192.0, 0.0, 0.0, 0.0, 0.0, 0.0, 0.0, 0.0, 0.0, 0.0, 1.695754520604937E9, 0.0, 2023-09-26 13:55:20.604
44.0, 73981.6142894762, 68891.3621176913, -19302.16184880279, -14361.286385212707, 34081.82818672993, 31326.34983376859, -187500.02235174447, 26545.848136645334, 45454.731041757, 34531.679395637446, 4331.030467871484, -250.42894487726034, 49070.23746612519, 36107.09740008085, 20709.405327964465, -6525.1447588377905, 0.132, 1.012, 0.07200000000000001, 192.0, 0.0, 0.0, 0.0, 0.0, 0.0, 0.0, 0.0, 0.0, 0.0, 1.695754520604946E9, 0.0, 2023-09-26 13:55:20.604
46.0, 73992.74545821494, 68898.49232417253, -19299.457287723697, -14363.253338724773, 34077.42489307224, 31319.510199965265, -187500.02235174447, 26551.860755903814, 45466.51041108494, 34561.49662274082, 4340.507607520533, -241.68941279523526, 49067.24233236818, 36131.01376664803, 20713.160421032957, -6524.787130926506, 0.132, 1.012, 0.07200000000000001, 192.0, 0.0, 0.0, 0.0, 0.0, 0.0, 0.0, 0.0, 0.0, 0.0, 1.695754520665096E9, 0.0, 2023-09-26 13:55:20.665
48.0, 73985.63760347816, 68901.28629222946, -19305.514610471084, -14363.275690469229, 34066.15961386676, 31318.884351120516, -187500.02235174447, 26538.986151097557, 45457.81558249183, 34551.34893075811, 4334.517340006511, -241.28708139503973, 49011.22886076318, 36107.61149020332, 20702.453935438865, -6533.616069986352, 0.132, 1.016, 0.068, 192.0, 2.0, 16.0, 15.5, 96.0, 1.0, 16.0, 0.0, 0.0, 0.0, 1.695754520665121E9, 0.0, 2023-09-26 13:55:20.665
50.0, 73988.61038549071, 68898.02293753898, -19308.085061083446, -14362.98511779131, 34058.98470389661, 31321.38774649951, -187500.02235174447, 26544.81995640039, 45455.73687025748, 34552.712387169886, 4325.151959079738, -249.17724718776313, 48981.23281970416, 36075.00029504303, 20690.898083555472, -6541.796808456995, 0.132, 1.016, 0.068, 192.0, 0.0, 0.0, 0.0, 0.0, 0.0, 0.0, 0.0, 0.0, 0.0, 1.695754520665164E9, 0.0, 2023-09-26 13:55:20.665
52.0, 73995.24885359393, 68905.24255099804, -19307.213343049687, -14352.166873474942, 34057.35302655137, 31329.501429736785, -187500.02235174447, 26532.88412486126, 45458.03909993638, 34542.81056437619, 4334.4502847731455, -235.8332557479448, 48953.98604321314, 36135.43941205018, 20697.089516769593, -6525.837662915906, 0.132, 1.016, 0.068, 192.0, 0.0, 0.0, 0.0, 0.0, 0.0, 0.0, 0.0, 0.0, 0.0, 1.695754520665174E9, 0.0, 2023-09-26 13:55:20.665
54.0, 73989.72797271347, 68902.38152770777, -19320.892610656334, -14354.469103153839, 34047.69707294668, 31320.471324976843, -187500.02235174447, 26542.025988343477, 45459.536666814885, 34564.9611431314, 4328.862348659319, -239.5659970719811, 48923.36415330937, 36126.364603801325, 20686.874769553517, -6527.782264683517, 0.132, 1.016, 0.068, 192.0, 0.0, 0.0, 0.0, 0.0, 0.0, 0.0, 0.0, 0.0, 0.0, 1.695754520665182E9, 0.0, 2023-09-26 13:55:20.665
56.0, 73993.57247275978, 68903.92379807518, -19315.34937803142, -14363.767428847246, 34044.29960778947, 31318.48201972032, -187500.02235174447, 26525.0610143019, 45449.14310564317, 34536.50737243979, 4323.587336967867, -252.15002920031898, 48878.28068474301, 36120.284929309484, 20688.260577709745, -6532.051447874481, 0.132, 1.016, 0.068, 192.0, 0.0, 0.0, 0.0, 0.0, 0.0, 0.0, 0.0, 0.0, 0.0, 1.695754520665191E9, 0.0, 2023-09-26 13:55:20.665
58.0, 73992.09725762573, 68910.33874873385, -19306.47573548266, -14346.310716427652, 34057.330674806915, 31324.986377356814, -187500.02235174447, 26548.82091865789, 45458.843762736775, 34567.75511118831, 4329.130569592782, -236.21323540368505, 48865.92017005923, 36112.21594956111, 20696.597778391573, -6518.796863412484, 0.136, 1.014, 0.07, 192.0, 2.0, 32.0, 15.5, 88.0, 1.0, 24.0, 0.0, 0.0, 0.0, 1.6957545206652E9, 0.0, 2023-09-26 13:55:20.665
60.0, 73996.72406872798, 68906.94128357664, -19301.245427280122, -14342.309754170152, 34049.2393433141, 31326.77451691324, -187500.02235174447, 26535.1640027957, 45462.15182091616, 34544.91162835498, 4326.604822469333, -245.2880436525397, 48819.942631714664, 36101.15183605574, 20688.506446898755, -6520.9202791357375, 0.136, 1.014, 0.07, 192.0, 0.0, 0.0, 0.0, 0.0, 0.0, 0.0, 0.0, 0.0, 0.0, 1.695754520665209E9, 0.0, 2023-09-26 13:55:20.665
62.0, 73988.58803374626, 68900.90631257372, -19315.93052338726, -14358.805341578167, 34036.87882863031, 31317.3420807531, -187500.02235174447, 26537.53328770796, 45468.4326611081, 34565.855212909606, 4335.5678719959105, -230.6923545232242, 48825.15058817275, 36122.38599328828, 20696.106040013558, -6519.087436090403, 0.136, 1.014, 0.07, 192.0, 0.0, 0.0, 0.0, 0.0, 0.0, 0.0, 0.0, 0.0, 0.0, 1.69575452072463E9, 0.0, 2023-09-26 13:55:20.724
64.0, 73991.18083610307, 68906.98598706556, -19313.96356987519, -14361.50990265726, 34029.65921517125, 31308.24492075979, -187500.02235174447, 26524.077537545865, 45445.700936997055, 34542.4529364649, 4319.318153776902, -253.73700305664576, 48793.50051802403, 36109.48903673757, 20668.2781181667, -6548.614090515864, 0.136, 1.014, 0.07, 192.0, 0.0, 0.0, 0.0, 0.0, 0.0, 0.0, 0.0, 0.0, 0.0, 1.695754520724662E9, 0.0, 2023-09-26 13:55:20.724
66.0, 73997.08169663927, 68907.03069055447, -19310.25318029561, -14350.110512985053, 34036.78942165249, 31316.760935397262, -187500.02235174447, 26541.48954647655, 45474.847611766774, 34579.44507353843, 4347.369593068313, -228.27836612205104, 48787.711416210106, 36118.16151358623, 20689.95931028835, -6529.995087384593, 0.136, 1.014, 0.07, 192.0, 0.0, 0.0, 0.0, 0.0, 0.0, 0.0, 0.0, 0.0, 0.0, 1.695754520724674E9, 0.0, 2023-09-26 13:55:20.724
68.0, 73989.77267620238, 68894.82663808187, -19321.585514734452, -14366.784914348713, 34020.897331344764, 31300.891196833993, -187500.02235174447, 26524.792793368437, 45452.80879173384, 34543.548171943214, 4322.961488123118, -245.42215411927154, 48752.37330822627, 36089.595984172345, 20663.47249310881, -6558.739430754117, 0.132, 1.014, 0.07200000000000001, 192.0, 2.0, 16.0, 15.5, 88.0, 1.0, 32.0, 0.0, 0.0, 0.0, 1.695754520724685E9, 0.0, 2023-09-26 13:55:20.724
70.0, 73994.60065300473, 68902.67210038568, -19322.233715323655, -14364.75090560328, 34020.02561331101, 31308.691955648897, -187500.02235174447, 26529.48665970405, 45463.20235290556, 34546.18567778893, 4338.026563885995, -230.6923545232242, 48764.37619499877, 36112.39476351676, 20670.155664700946, -6546.58008177043, 0.132, 1.014, 0.07200000000000001, 192.0, 0.0, 0.0, 0.0, 0.0, 0.0, 0.0, 0.0, 0.0, 0.0, 1.695754520724696E9, 0.0, 2023-09-26 13:55:20.724
72.0, 73977.94860338552, 68885.505960644, -19338.908116687315, -14369.98121380582, 34005.56403464842, 31312.15647603947, -187500.02235174447, 26520.456554944107, 45449.34427134327, 34550.29839876871, 4320.815720655408, -249.69133731023518, 48726.64645035821, 36102.71645816761, 20656.14112092747, -6557.264215620067, 0.132, 1.014, 0.07200000000000001, 192.0, 0.0, 0.0, 0.0, 0.0, 0.0, 0.0, 0.0, 0.0, 0.0, 1.695754520724744E9, 0.0, 2023-09-26 13:55:20.724
74.0, 73990.62204249168, 68903.07443178588, -19323.865392668893, -14358.626527622526, 34018.77391562151, 31322.125354066535, -187500.02235174447, 26535.387520240252, 45464.498754083965, 34562.435396007946, 4329.71171494862, -238.49311333812636, 48705.7475692925, 36108.61731870381, 20668.702801311352, -6534.979526398126, 0.132, 1.014, 0.07200000000000001, 192.0, 0.0, 0.0, 0.0, 0.0, 0.0, 0.0, 0.0, 0.0, 0.0, 1.695754520724754E9, 0.0, 2023-09-26 13:55:20.724
76.0, 74000.07683039628, 68901.24158874054, -19325.854697925413, -14352.569204875137, 34012.805999851946, 31326.48394423532, -187500.02235174447, 26536.72862490757, 45465.70574828455, 34550.186640046435, 4328.460017259124, -244.5951395744252, 48722.53372937843, 36083.40455095823, 20665.640612320974, -6539.002840400081, 0.132, 1.014, 0.07200000000000001, 192.0, 0.0, 0.0, 0.0, 0.0, 0.0, 0.0, 0.0, 0.0, 0.0, 1.695754520784273E9, 0.0, 2023-09-26 13:55:20.784
78.0, 73977.97095512997, 68883.2037309651, -19346.0159714241, -14369.51182717226, 33992.08593274187, 31313.81050512916, -187500.02235174447, 26539.924924364677, 45458.95552145905, 34544.93398009944, 4323.162653823216, -237.66609879327999, 48675.25978985546, 36096.368562742304, 20664.791246031673, -6535.493616520598, 0.14200000000000002, 1.02, 0.076, 192.0, 2.0, 56.0, 15.5, 112.0, 1.0, 48.0, 0.0, 0.0, 0.0, 1.695754520784299E9, 0.0, 2023-09-26 13:55:20.784
80.0, 73977.74743768542, 68885.0589257549, -19331.59909625043, -14369.712992872357, 33998.0762002559, 31316.91739760845, -187500.02235174447, 26545.468156989595, 45460.36368135973, 34543.43641322094, 4319.608726454821, -250.3395378994391, 48687.463842328056, 36080.34236196785, 20662.66783030842, -6534.756008953573, 0.14200000000000002, 1.02, 0.076, 192.0, 0.0, 0.0, 0.0, 0.0, 0.0, 0.0, 0.0, 0.0, 0.0, 1.69575452078431E9, 0.0, 2023-09-26 13:55:20.784
82.0, 73975.78048417336, 68886.69060310014, -19346.97709643568, -14380.017147066254, 33988.01791525101, 31318.705537164875, -187500.02235174447, 26538.20384004162, 45456.27331212441, 34536.30620673969, 4314.959563608118, -263.86234329489986, 48682.32294110334, 36073.88270782027, 20661.3267256411, -6542.355602068377, 0.14200000000000002, 1.02, 0.076, 192.0, 0.0, 0.0, 0.0, 0.0, 0.0, 0.0, 0.0, 0.0, 0.0, 1.695754520784323E9, 0.0, 2023-09-26 13:55:20.784
84.0, 73982.95539414352, 68882.82375130936, -19335.68946548575, -14373.043402796198, 33990.05192399644, 31314.61516792955, -187500.02235174447, 26533.375863239275, 45455.08866966828, 34564.5588117312, 4314.512528719011, -263.9517502727211, 48665.3356153173, 36077.30252472193, 20654.263574393222, -6543.652003246785, 0.14200000000000002, 1.02, 0.076, 192.0, 0.0, 0.0, 0.0, 0.0, 0.0, 0.0, 0.0, 0.0, 0.0, 1.695754520784337E9, 0.0, 2023-09-26 13:55:20.784
86.0, 73961.2071467885, 68863.86947201127, -19350.463968570708, -14390.142487304509, 33975.72445580059, 31293.023382785726, -187500.02235174447, 26523.1611160232, 45449.23251262099, 34526.71730836837, 4313.350238007336, -263.46001189470434, 48644.10145808476, 36073.36861769779, 20657.191652916867, -6553.509122551575, 0.14200000000000002, 1.02, 0.076, 192.0, 0.0, 0.0, 0.0, 0.0, 0.0, 0.0, 0.0, 0.0, 0.0, 1.695754520784351E9, 0.0, 2023-09-26 13:55:20.784
88.0, 73967.3538765137, 68872.38548664874, -19347.044151669044, -14380.575940677636, 33970.516499342506, 31309.38485972701, -187500.02235174447, 26535.029892328967, 45431.12759961219, 34515.42967741843, 4300.90031634573, -274.9935120336428, 48619.022800805906, 36058.32589367937, 20644.629972532985, -6560.818142988461, 0.15, 1.02, 0.068, 192.0, 2.0, 88.0, 15.5, 112.0, 1.0, 16.0, 0.0, 0.0, 0.0, 1.695754520784366E9, 0.0, 2023-09-26 13:55:20.784
90.0, 73971.98068761596, 68881.43794315314, -19332.426110795273, -14369.847103339089, 33972.595211576845, 31304.467475946843, -187500.02235174447, 26525.82097361338, 45446.259730608435, 34534.518067183264, 4315.160729308215, -261.49305838263734, 48616.51940542691, 36081.39289395725, 20652.587193559077, -6551.788038228517, 0.15, 1.02, 0.068, 192.0, 0.0, 0.0, 0.0, 0.0, 0.0, 0.0, 0.0, 0.0, 0.0, 1.695754520784376E9, 0.0, 2023-09-26 13:55:20.784
92.0, 73977.83684466325, 68881.41559140869, -19334.88480268536, -14362.292213713195, 33977.95963024612, 31303.439295701897, -187500.02235174447, 26531.788889382948, 45453.50169581195, 34551.25952378029, 4317.28414503147, -252.75352630061226, 48606.28230646638, 36051.68742557614, 20653.347152870556, -6550.357526583377, 0.15, 1.02, 0.068, 192.0, 0.0, 0.0, 0.0, 0.0, 0.0, 0.0, 0.0, 0.0, 0.0, 1.695754520844396E9, 0.0, 2023-09-26 13:55:20.844
94.0, 73986.55402500082, 68885.95299553311, -19328.469852026683, -14365.622623637037, 33973.645743566245, 31304.780400369218, -187500.02235174447, 26519.24956074352, 45457.010919691435, 34535.79211661722, 4326.090732346861, -243.3881453738386, 48602.50486165343, 36071.37931244127, 20655.29175463817, -6550.066953905458, 0.15, 1.02, 0.068, 192.0, 0.0, 0.0, 0.0, 0.0, 0.0, 0.0, 0.0, 0.0, 0.0, 1.695754520844449E9, 0.0, 2023-09-26 13:55:20.844
96.0, 73979.35676328621, 68879.11336172979, -19343.40081732283, -14376.642033653503, 33963.520403327995, 31290.788208340196, -187500.02235174447, 26532.43708997215, 45451.3782800887, 34533.44518344941, 4321.66508694471, -257.00035774712063, 48595.08408249427, 36077.10135902183, 20649.256783635235, -6559.879369721338, 0.15, 1.02, 0.068, 192.0, 0.0, 0.0, 0.0, 0.0, 0.0, 0.0, 0.0, 0.0, 0.0, 1.695754520844459E9, 0.0, 2023-09-26 13:55:20.844
98.0, 73986.10699011172, 68890.22217872407, -19330.280343327566, -14358.403010177972, 33963.9674382171, 31303.34988872408, -187500.02235174447, 26519.54013342144, 45450.28304461039, 34546.72211965587, 4315.47365373059, -253.11115421189717, 48576.37567238518, 36071.64753337474, 20642.417149831912, -6555.63253827483, 0.146, 1.018, 0.07200000000000001, 192.0, 2.0, 72.0, 15.5, 104.0, 1.0, 32.0, 0.0, 0.0, 0.0, 1.695754520844469E9, 0.0, 2023-09-26 13:55:20.844
100.0, 73979.3120597973, 68888.38933567874, -19342.283230100064, -14370.383545206018, 33950.53403979946, 31302.34406022359, -187500.02235174447, 26525.44099395764, 45452.249998122454, 34554.098195326114, 4317.351200264836, -249.4454681212268, 48569.04430020384, 36044.80308828391, 20640.360789342023, -6555.811352230472, 0.146, 1.018, 0.07200000000000001, 192.0, 0.0, 0.0, 0.0, 0.0, 0.0, 0.0, 0.0, 0.0, 0.0, 1.695754520844478E9, 0.0, 2023-09-26 13:55:20.844
102.0, 73987.42574303458, 68897.35238520532, -19332.850793939924, -14364.192111991897, 33961.64285679375, 31298.790132855196, -187500.02235174447, 26512.029947284456, 45459.5813703038, 34564.82703266466, 4323.90026139024, -244.43867736323804, 48570.74303278244, 36062.32685593687, 20646.820443489607, -6549.038773660514, 0.146, 1.018, 0.07200000000000001, 192.0, 0.0, 0.0, 0.0, 0.0, 0.0, 0.0, 0.0, 0.0, 0.0, 1.695754520844488E9, 0.0, 2023-09-26 13:55:20.844
104.0, 73978.14976908562, 68883.71782108759, -19340.897421943835, -14374.31745223015, 33948.47767930957, 31292.598699641076, -187500.02235174447, 26521.015348555487, 45447.42202132011, 34549.71725341288, 4315.3171915194025, -250.85362802191116, 48557.488448320444, 36059.82346055788, 20636.717454995807, -6561.667509277762, 0.146, 1.018, 0.07200000000000001, 192.0, 0.0, 0.0, 0.0, 0.0, 0.0, 0.0, 0.0, 0.0, 0.0, 1.695754520844497E9, 0.0, 2023-09-26 13:55:20.844
106.0, 73987.96218490151, 68895.00545203751, -19322.814860679493, -14357.531292144215, 33954.57970554587, 31306.032098058713, -187500.02235174447, 26517.528476420463, 45457.14503015817, 34539.74837538581, 4323.319116034403, -247.00912797559835, 48560.505933821914, 36059.599943113324, 20640.986638186772, -6550.871616705849, 0.146, 1.018, 0.07200000000000001, 192.0, 0.0, 0.0, 0.0, 0.0, 0.0, 0.0, 0.0, 0.0, 0.0, 1.695754520904748E9, 0.0, 2023-09-26 13:55:20.904
108.0, 73982.97774588797, 68892.6138153808, -19324.044206624534, -14368.37188820504, 33958.08892942535, 31297.24786248778, -187500.02235174447, 26527.944389336633, 45464.67756803961, 34575.06413162519, 4334.137360350771, -233.75454351360125, 48561.28824487785, 36059.19761171313, 20657.348115128054, -6546.0436399035025, 0.146, 1.016, 0.066, 192.0, 2.0, 72.0, 15.5, 96.0, 1.0, 8.0, 0.0, 0.0, 0.0, 1.695754520904796E9, 0.0, 2023-09-26 13:55:20.904
110.0, 73997.14875187264, 68908.05887079942, -19323.73128220216, -14362.672193368935, 33950.66815026619, 31303.32753697962, -187500.02235174447, 26518.91428457669, 45458.01674819193, 34563.485927997346, 4325.889566646763, -245.37745063036093, 48542.62453825767, 36045.473640617565, 20648.31801036811, -6559.477038321143, 0.146, 1.016, 0.066, 192.0, 0.0, 0.0, 0.0, 0.0, 0.0, 0.0, 0.0, 0.0, 0.0, 1.695754520904806E9, 0.0, 2023-09-26 13:55:20.904
112.0, 73995.07003963829, 68903.25324574152, -19324.1112618579, -14366.561396904159, 33956.54665905794, 31305.607414914062, -187500.02235174447, 26538.896744119735, 45469.17026867512, 34573.32069555768, 4328.9964591260505, -240.34830812791685, 48555.94617795303, 36065.00906527151, 20646.75338825624, -6551.944500439704, 0.146, 1.016, 0.066, 192.0, 0.0, 0.0, 0.0, 0.0, 0.0, 0.0, 0.0, 0.0, 0.0, 1.695754520904815E9, 0.0, 2023-09-26 13:55:20.904
114.0, 73993.14778961513, 68901.37569920727, -19317.96453213269, -14354.26793745374, 33944.230847863066, 31299.326574722123, -187500.02235174447, 26525.575104424373, 45469.84082100878, 34552.354759258604, 4335.322002806903, -238.73898252713474, 48546.91607319308, 36058.549411123924, 20650.731998769286, -6551.944500439704, 0.146, 1.016, 0.066, 192.0, 0.0, 0.0, 0.0, 0.0, 0.0, 0.0, 0.0, 0.0, 0.0, 1.695754520904824E9, 0.0, 2023-09-26 13:55:20.904
116.0, 73990.84555993624, 68897.6653096277, -19306.743956416125, -14352.971536275332, 33944.94610368563, 31306.81440911465, -187500.02235174447, 26539.947276109135, 45472.47832685451, 34564.245887308825, 4339.233558086581, -225.6855637652354, 48551.6099395287, 36064.427919915666, 20644.652324277442, -6548.8599597048715, 0.146, 1.016, 0.066, 192.0, 0.0, 0.0, 0.0, 0.0, 0.0, 0.0, 0.0, 0.0, 0.0, 1.695754520904871E9, 0.0, 2023-09-26 13:55:20.904
118.0, 73993.90774892662, 68903.40970795271, -19303.100622069913, -14345.93073677191, 33949.595266532335, 31310.10011554958, -187500.02235174447, 26537.265066774497, 45468.700882041565, 34562.54715473022, 4337.423066785702, -233.77689525805656, 48545.5079132924, 36069.14413799574, 20652.56484181462, -6549.016421916059, 0.136, 1.016, 0.068, 192.0, 2.0, 32.0, 15.5, 96.0, 1.0, 16.0, 0.0, 0.0, 0.0, 1.69575452090488E9, 0.0, 2023-09-26 13:55:20.904
120.0, 73984.60942323321, 68898.06764102788, -19305.156982559798, -14357.12896074402, 33946.57778103087, 31310.167170782945, -187500.02235174447, 26543.948238366633, 45467.024501207416, 34563.821204164175, 4336.2160725851145, -232.99458420212082, 48555.02975643036, 36056.51540237849, 20652.900117981448, -6546.9824131706255, 0.136, 1.016, 0.068, 192.0, 0.0, 0.0, 0.0, 0.0, 0.0, 0.0, 0.0, 0.0, 0.0, 1.695754520904889E9, 0.0, 2023-09-26 13:55:20.904
122.0, 73975.73578068445, 68889.68573685715, -19319.283285055553, -14362.336917202107, 33934.46313553609, 31290.47528391782, -187500.02235174447, 26529.0619765594, 45471.561905331844, 34560.043759351225, 4334.293822561958, -237.66609879327999, 48551.02879417286, 36045.87597201776, 20655.582327316086, -6556.951291197693, 0.136, 1.016, 0.068, 192.0, 0.0, 0.0, 0.0, 0.0, 0.0, 0.0, 0.0, 0.0, 0.0, 1.695754520964963E9, 0.0, 2023-09-26 13:55:20.964
124.0, 73975.73578068445, 68889.0151845235, -19312.15307857431, -14366.092010270599, 33934.016100646986, 31299.728906122316, -187500.02235174447, 26545.53521222296, 45462.35298661626, 34552.26535228078, 4325.688400946665, -246.07035470847546, 48543.13862838014, 36038.72341379207, 20644.473510321797, -6557.711250509174, 0.136, 1.016, 0.068, 192.0, 0.0, 0.0, 0.0, 0.0, 0.0, 0.0, 0.0, 0.0, 0.0, 1.695754520964986E9, 0.0, 2023-09-26 13:55:20.964
126.0, 73995.60648150522, 68896.14539100473, -19296.126877799856, -14351.339858930096, 33942.93444668465, 31309.429563215923, -187500.02235174447, 26551.190203570153, 45466.64452155167, 34572.359570546105, 4331.9915928830615, -243.3657936293833, 48544.010346413896, 36051.352149409315, 20657.616336061517, -6555.878407463838, 0.136, 1.016, 0.068, 192.0, 0.0, 0.0, 0.0, 0.0, 0.0, 0.0, 0.0, 0.0, 0.0, 1.695754520964996E9, 0.0, 2023-09-26 13:55:20.964
128.0, 73992.67840298158, 68894.29019621495, -19301.848924380414, -14353.038591508699, 33943.89557169623, 31307.552016681675, -187500.02235174447, 26551.659590203715, 45474.288818155386, 34576.3605328036, 4343.279223832992, -232.48049407964876, 48556.63908203114, 36063.310332692905, 20666.75819954374, -6539.67339273374, 0.136, 1.018, 0.068, 192.0, 2.0, 32.0, 15.5, 104.0, 1.0, 16.0, 0.0, 0.0, 0.0, 1.695754520965005E9, 0.0, 2023-09-26 13:55:20.965
130.0, 73987.78337094586, 68888.32228044537, -19303.547656959017, -14367.254300982273, 33943.40383331822, 31299.348926466577, -187500.02235174447, 26545.87048838979, 45469.103213441755, 34568.783291433254, 4335.47846501809, -244.9527674857101, 48571.123012438184, 36046.34535865133, 20658.08572269508, -6554.403192329788, 0.136, 1.018, 0.068, 192.0, 0.0, 0.0, 0.0, 0.0, 0.0, 0.0, 0.0, 0.0, 0.0, 1.695754520965015E9, 0.0, 2023-09-26 13:55:20.965
132.0, 73975.0652283508, 68880.63328035275, -19307.34745351642, -14355.69844909888, 33940.34164432784, 31307.4402579594, -187500.02235174447, 26544.462328489106, 45472.053643709856, 34556.065148838185, 4330.695191704654, -244.2598634075956, 48558.15900065411, 36031.25793114399, 20663.964231486825, -6547.876482948838, 0.136, 1.018, 0.068, 192.0, 0.0, 0.0, 0.0, 0.0, 0.0, 0.0, 0.0, 0.0, 0.0, 1.695754520965023E9, 0.0, 2023-09-26 13:55:20.965
134.0, 73963.46467297849, 68868.92096625817, -19319.663264711293, -14370.160027761463, 33929.36693780028, 31294.96798455334, -187500.02235174447, 26554.341799538353, 45461.57067556032, 34560.91547738499, 4318.893470632252, -251.8818082668553, 48551.98991918444, 36027.81576249788, 20653.883594737483, -6556.548959797497, 0.136, 1.018, 0.068, 192.0, 0.0, 0.0, 0.0, 0.0, 0.0, 0.0, 0.0, 0.0, 0.0, 1.695754520965032E9, 0.0, 2023-09-26 13:55:20.965
136.0, 73973.18768181655, 68881.03561175294, -19314.656473953306, -14369.131847516519, 33935.759536714504, 31297.158455509958, -187500.02235174447, 26547.68097969067, 45467.04685295187, 34545.8056981332, 4329.555252737433, -258.09559322543066, 48562.65170128962, 36048.357015652306, 20657.012838961225, -6554.112619651869, 0.136, 1.018, 0.068, 192.0, 0.0, 0.0, 0.0, 0.0, 0.0, 0.0, 0.0, 0.0, 0.0, 1.695754520965041E9, 0.0, 2023-09-26 13:55:20.965
138.0, 73976.85336790721, 68892.56911189188, -19313.20361056371, -14364.169760247441, 33934.46313553609, 31295.169150253434, -187500.02235174447, 26548.597401213337, 45470.06433845334, 34551.34893075811, 4335.590223740366, -251.05479372200892, 48577.42620437458, 36044.311349905896, 20653.61537380402, -6561.220474388657, 0.136, 1.016, 0.07, 192.0, 2.0, 32.0, 15.5, 96.0, 1.0, 24.0, 0.0, 0.0, 0.0, 1.695754521024843E9, 0.0, 2023-09-26 13:55:21.024
140.0, 73965.2528125349, 68875.89471052823, -19326.949933403725, -14373.736306874313, 33925.678899965154, 31284.395609425977, -187500.02235174447, 26531.922999849678, 45468.81264076384, 34537.22262826236, 4333.891491161763, -254.02757573456478, 48563.76928851238, 36039.975111481566, 20647.781568501185, -6566.406079102288, 0.136, 1.016, 0.07, 192.0, 0.0, 0.0, 0.0, 0.0, 0.0, 0.0, 0.0, 0.0, 0.0, 1.695754521024869E9, 0.0, 2023-09-26 13:55:21.024
142.0, 73978.23917606345, 68889.17164673467, -19305.961645360192, -14350.155216473964, 33939.98401641655, 31297.471379932333, -187500.02235174447, 26540.997808098535, 45481.79900429237, 34570.63848622304, 4342.385154054779, -240.1694941722744, 48555.76736399739, 36028.151038664706, 20659.449179106854, -6554.3137853519665, 0.136, 1.016, 0.07, 192.0, 0.0, 0.0, 0.0, 0.0, 0.0, 0.0, 0.0, 0.0, 0.0, 1.695754521024878E9, 0.0, 2023-09-26 13:55:21.024
144.0, 73964.13522531214, 68890.33393744635, -19318.456270510706, -14363.275690469229, 33927.69055696613, 31287.86012981655, -187500.02235174447, 26525.597456168827, 45469.527896586405, 34544.08461381014, 4340.932290665185, -243.3657936293833, 48574.341663639745, 36032.64373930022, 20654.978830215794, -6554.224378374145, 0.136, 1.016, 0.07, 192.0, 0.0, 0.0, 0.0, 0.0, 0.0, 0.0, 0.0, 0.0, 0.0, 1.695754521024887E9, 0.0, 2023-09-26 13:55:21.024
146.0, 73961.90005086662, 68892.34559444732, -19314.902343142312, -14363.365097447051, 33931.9597401571, 31290.63174612901, -187500.02235174447, 26539.34377900884, 45471.1819256761, 34566.212840820896, 4335.165540595715, -250.6748140662687, 48578.5661433418, 36039.99746322602, 20647.60275454554, -6560.907549966282, 0.136, 1.016, 0.07, 192.0, 0.0, 0.0, 0.0, 0.0, 0.0, 0.0, 0.0, 0.0, 0.0, 1.695754521024896E9, 0.0, 2023-09-26 13:55:21.024
148.0, 73978.97678363047, 68915.18907728065, -19298.07147956747, -14341.12511171402, 33938.79937396042, 31311.240054516802, -187500.02235174447, 26540.39431099824, 45487.923382273126, 34539.72602364136, 4361.048860674961, -230.08885742293091, 48591.64191384816, 36036.532942835445, 20666.93701349938, -6535.9406514097045, 0.134, 1.014, 0.07, 192.0, 2.0, 24.0, 15.5, 88.0, 1.0, 24.0, 0.0, 0.0, 0.0, 1.695754521024905E9, 0.0, 2023-09-26 13:55:21.024
150.0, 73971.57835621576, 68908.05887079942, -19311.77309891857, -14354.55851013166, 33931.89268492373, 31297.56078691015, -187500.02235174447, 26546.339875023354, 45487.208126450554, 34568.000980377314, 4349.2471396025585, -228.74775275561248, 48607.846928578256, 36045.764213295486, 20650.240260391267, -6540.567462511953, 0.134, 1.014, 0.07, 192.0, 0.0, 0.0, 0.0, 0.0, 0.0, 0.0, 0.0, 0.0, 0.0, 1.695754521024914E9, 0.0, 2023-09-26 13:55:21.024
152.0, 73981.94956564302, 68913.37858597978, -19295.545732444018, -14339.135806457498, 33925.410679031695, 31298.410153199453, -187500.02235174447, 26535.208706284608, 45484.68237932711, 34572.761901946295, 4356.220883872615, -227.09372366591975, 48585.65164633413, 36049.20638194161, 20650.106149924537, -6544.0990381358915, 0.134, 1.014, 0.07, 192.0, 0.0, 0.0, 0.0, 0.0, 0.0, 0.0, 0.0, 0.0, 0.0, 1.695754521085262E9, 0.0, 2023-09-26 13:55:21.085
154.0, 73982.84363542123, 68912.73038539058, -19307.570970960973, -14349.529367629215, 33936.385385559246, 31290.832911829104, -187500.02235174447, 26540.573124953884, 45507.92819356063, 34579.333314816155, 4371.1965526576705, -216.87897644984443, 48609.07627452329, 36061.05280650292, 20672.077914724105, -6532.252613574578, 0.134, 1.014, 0.07, 192.0, 0.0, 0.0, 0.0, 0.0, 0.0, 0.0, 0.0, 0.0, 0.0, 1.695754521085302E9, 0.0, 2023-09-26 13:55:21.085
156.0, 73971.9136323826, 68915.77022263649, -19307.213343049687, -14353.686792097902, 33937.19004835964, 31281.735751835797, -187500.02235174447, 26530.62659867127, 45484.99530374948, 34553.27118078127, 4354.38804082728, -235.96736621467667, 48603.153062242636, 36033.98484396754, 20657.50457733924, -6541.707401479173, 0.134, 1.014, 0.07, 192.0, 0.0, 0.0, 0.0, 0.0, 0.0, 0.0, 0.0, 0.0, 0.0, 1.695754521085312E9, 0.0, 2023-09-26 13:55:21.085
158.0, 73957.51910895338, 68896.68183287166, -19319.68561645575, -14374.630376652525, 33923.51078075299, 31277.62303085602, -187500.02235174447, 26532.995883583535, 45478.5356496019, 34566.32459954317, 4348.4201250577125, -233.01693594657613, 48616.56410891582, 36020.9537769501, 20647.558051056632, -6555.409020830277, 0.138, 1.014, 0.068, 192.0, 2.0, 40.0, 15.5, 88.0, 1.0, 16.0, 0.0, 0.0, 0.0, 1.695754521085321E9, 0.0, 2023-09-26 13:55:21.085
160.0, 73948.42194896007, 68886.86941705579, -19331.688503228248, -14376.37381272004, 33912.558425969895, 31273.420902898422, -187500.02235174447, 26526.938560836144, 45470.10904194225, 34535.47919219484, 4334.718505706609, -246.2044651752073, 48610.93146931309, 35984.98982012151, 20630.347207826046, -6571.2787593935445, 0.138, 1.014, 0.068, 192.0, 0.0, 0.0, 0.0, 0.0, 0.0, 0.0, 0.0, 0.0, 0.0, 1.695754521085331E9, 0.0, 2023-09-26 13:55:21.085
162.0, 73959.17313804307, 68903.02972829697, -19327.039340381543, -14374.9433010749, 33938.419394304685, 31271.47630113081, -187500.02235174447, 26539.790813897947, 45491.36555091925, 34557.048625594216, 4352.443439059668, -231.27349987906217, 48614.194824003556, 36024.731221763046, 20646.23929813377, -6551.832741717428, 0.138, 1.014, 0.068, 192.0, 0.0, 0.0, 0.0, 0.0, 0.0, 0.0, 0.0, 0.0, 0.0, 1.695754521085383E9, 0.0, 2023-09-26 13:55:21.085
164.0, 73955.12747229666, 68909.24351325554, -19319.707968200204, -14363.789780591702, 33931.9597401571, 31278.561804123143, -187500.02235174447, 26532.593552183338, 45483.81066129335, 34552.51122146979, 4349.023622158006, -241.4658953506822, 48626.01889682042, 36015.29878560291, 20643.31121961012, -6560.460515077176, 0.138, 1.014, 0.068, 192.0, 0.0, 0.0, 0.0, 0.0, 0.0, 0.0, 0.0, 0.0, 0.0, 1.695754521085393E9, 0.0, 2023-09-26 13:55:21.085
166.0, 73932.10517550769, 68894.64782412622, -19345.97126793519, -14389.404879737483, 33912.200798058606, 31250.353902620544, -187500.02235174447, 26536.10277606282, 45471.7854227764, 34571.286686812244, 4342.832188943886, -246.76325878658997, 48613.41251294762, 36016.03639316993, 20631.263629348712, -6570.787021015528, 0.138, 1.014, 0.068, 192.0, 0.0, 0.0, 0.0, 0.0, 0.0, 0.0, 0.0, 0.0, 0.0, 1.695754521085403E9, 0.0, 2023-09-26 13:55:21.085
168.0, 73944.1527657691, 68890.93743454665, -19337.209384108708, -14381.84999011159, 33914.167751570676, 31253.57255382211, -187500.02235174447, 26528.257313759008, 45457.52500981391, 34534.65217765, 4325.956621880129, -262.11890722738593, 48601.65549536413, 35989.57192773485, 20613.471640762287, -6586.299131667511, 0.134, 1.014, 0.07200000000000001, 192.0, 2.0, 24.0, 15.5, 88.0, 1.0, 32.0, 0.0, 0.0, 0.0, 1.695754521145491E9, 0.0, 2023-09-26 13:55:21.145
170.0, 73965.52103346838, 68914.74204239155, -19311.281360540554, -14352.479797897317, 33926.461211021095, 31282.071028002625, -187500.02235174447, 26532.973531839078, 45481.10610021426, 34553.67351218146, 4346.967261668117, -234.1792266582521, 48623.33668748578, 36000.7477999625, 20625.65334149043, -6566.92016922476, 0.134, 1.014, 0.07200000000000001, 192.0, 0.0, 0.0, 0.0, 0.0, 0.0, 0.0, 0.0, 0.0, 0.0, 1.695754521145513E9, 0.0, 2023-09-26 13:55:21.145
172.0, 73969.63375444815, 68911.45633595662, -19298.406755734297, -14345.55075711617, 33940.47575479457, 31294.632708386507, -187500.02235174447, 26538.762633653, 45502.608478380265, 34563.195355319425, 4366.256817133048, -226.44552307671586, 48645.59902496327, 36029.87212298776, 20647.66980977891, -6548.792904471506, 0.134, 1.014, 0.07200000000000001, 192.0, 0.0, 0.0, 0.0, 0.0, 0.0, 0.0, 0.0, 0.0, 0.0, 1.695754521145523E9, 0.0, 2023-09-26 13:55:21.145
174.0, 73958.34612349822, 68901.55451316292, -19307.9062471278, -14355.36317293205, 33942.64387400674, 31285.3343826931, -187500.02235174447, 26544.95406686712, 45510.11866451725, 34564.245887308825, 4369.609578801344, -227.33959285492813, 48665.62618799522, 36033.09077418933, 20649.212080146324, -6544.68018349173, 0.134, 1.014, 0.07200000000000001, 192.0, 0.0, 0.0, 0.0, 0.0, 0.0, 0.0, 0.0, 0.0, 0.0, 1.695754521145532E9, 0.0, 2023-09-26 13:55:21.145
176.0, 73948.53370768233, 68885.75182983301, -19315.9081716428, -14368.818923094144, 33932.56323725739, 31272.392722653476, -187500.02235174447, 26553.96181988261, 45494.204222465065, 34552.80179414771, 4355.438572816679, -246.1597616862967, 48653.82446692282, 35995.24927082649, 20637.94680094085, -6555.1407998968125, 0.134, 1.014, 0.07200000000000001, 192.0, 0.0, 0.0, 0.0, 0.0, 0.0, 0.0, 0.0, 0.0, 0.0, 1.695754521145541E9, 0.0, 2023-09-26 13:55:21.145
178.0, 73957.11677755318, 68892.34559444732, -19312.086023340944, -14364.817960836644, 33932.31736806838, 31278.33828667859, -187500.02235174447, 26554.699427449636, 45498.76397833395, 34543.190544031924, 4361.428840330701, -245.42215411927154, 48651.522237243924, 35995.02575338194, 20635.577516028585, -6556.414849330766, 0.136, 1.012, 0.07, 192.0, 2.0, 32.0, 15.5, 80.0, 1.0, 24.0, 0.0, 0.0, 0.0, 1.69575452114555E9, 0.0, 2023-09-26 13:55:21.145
180.0, 73957.58616418674, 68889.81984732389, -19320.333817044953, -14359.811170078656, 33930.596283745326, 31263.407321382445, -187500.02235174447, 26544.417625000195, 45488.95156251807, 34543.57052368767, 4357.986671684584, -241.28708139503973, 48642.805056906356, 36015.209378625084, 20632.381216571477, -6561.689861022218, 0.136, 1.012, 0.07, 192.0, 0.0, 0.0, 0.0, 0.0, 0.0, 0.0, 0.0, 0.0, 0.0, 1.695754521145559E9, 0.0, 2023-09-26 13:55:21.145
182.0, 73958.27906826485, 68890.78097233546, -19316.422261765274, -14358.805341578167, 33932.85380993531, 31271.94568776437, -187500.02235174447, 26537.309770263408, 45507.212937738055, 34543.39170973202, 4367.217942144625, -235.25211039210683, 48663.10044087177, 36011.32017508986, 20640.45019631984, -6555.654890019285, 0.136, 1.012, 0.07, 192.0, 0.0, 0.0, 0.0, 0.0, 0.0, 0.0, 0.0, 0.0, 0.0, 1.695754521205801E9, 0.0, 2023-09-26 13:55:21.205
184.0, 73959.70957990999, 68900.83925734035, -19305.805183149005, -14345.282536182707, 33945.81782171939, 31285.401437926466, -187500.02235174447, 26542.405967999217, 45509.53751916141, 34543.68228240994, 4364.24516013207, -239.45423834970455, 48677.22674336752, 36004.92757617564, 20636.158661384423, -6558.225340631645, 0.136, 1.012, 0.07, 192.0, 0.0, 0.0, 0.0, 0.0, 0.0, 0.0, 0.0, 0.0, 0.0, 1.695754521205856E9, 0.0, 2023-09-26 13:55:21.205
186.0, 73964.11287356769, 68906.9636353211, -19302.832401136446, -14335.090140711087, 33957.82070849189, 31286.608432127054, -187500.02235174447, 26536.30394176292, 45520.087542544316, 34546.96798884487, 4375.890418993285, -221.93047069674384, 48680.9371329471, 36027.36872760877, 20646.865146978518, -6550.424581816743, 0.136, 1.012, 0.07, 192.0, 0.0, 0.0, 0.0, 0.0, 0.0, 0.0, 0.0, 0.0, 0.0, 1.695754521205865E9, 0.0, 2023-09-26 13:55:21.205
188.0, 73961.69888516652, 68910.71872838959, -19305.514610471084, -14349.641126351491, 33943.42618506267, 31287.591908883085, -187500.02235174447, 26552.888936148756, 45519.662859399665, 34564.69292219793, 4370.2577793905475, -224.7244387536572, 48691.71067377456, 36010.6496227562, 20642.46185332082, -6553.442067318209, 0.14, 1.018, 0.066, 192.0, 2.0, 48.0, 15.5, 104.0, 1.0, 8.0, 0.0, 0.0, 0.0, 1.695754521205875E9, 0.0, 2023-09-26 13:55:21.205
190.0, 73962.57060320028, 68903.61087365281, -19307.0568808385, -14341.438036136395, 33946.13074614176, 31296.733772365307, -187500.02235174447, 26550.139671580753, 45515.48308318652, 34567.64335246603, 4374.035224203494, -221.50578755209298, 48692.18006040813, 36030.63208229924, 20642.03717017617, -6550.7375062391175, 0.14, 1.018, 0.066, 192.0, 0.0, 0.0, 0.0, 0.0, 0.0, 0.0, 0.0, 0.0, 0.0, 1.695754521205884E9, 0.0, 2023-09-26 13:55:21.205
192.0, 73953.29462925132, 68895.60894913781, -19312.667168696782, -14343.516748370737, 33936.586551259345, 31299.01365029975, -187500.02235174447, 26565.87529967729, 45511.37036220674, 34557.518012227774, 4364.222808387614, -218.10832239488633, 48682.412348081154, 36014.20355012459, 20643.55708879913, -6549.396401571799, 0.14, 1.018, 0.066, 192.0, 0.0, 0.0, 0.0, 0.0, 0.0, 0.0, 0.0, 0.0, 0.0, 1.695754521205893E9, 0.0, 2023-09-26 13:55:21.205
194.0, 73956.89326010863, 68897.75471660552, -19302.854752880903, -14344.902556526966, 33934.843115191834, 31304.24395850229, -187500.02235174447, 26559.080369362877, 45526.61425192526, 34552.31005576969, 4367.620273544821, -222.7798369860455, 48676.757356733964, 36027.5028380755, 20649.189728401867, -6548.167055626757, 0.14, 1.018, 0.066, 192.0, 0.0, 0.0, 0.0, 0.0, 0.0, 0.0, 0.0, 0.0, 0.0, 1.695754521205901E9, 0.0, 2023-09-26 13:55:21.205
196.0, 73967.28682128034, 68905.24255099804, -19298.831438878948, -14355.720800843335, 33936.76536521499, 31302.567577668142, -187500.02235174447, 26559.39329378525, 45518.43351345462, 34567.598648977124, 4368.357881111847, -223.53979629752592, 48689.47549932903, 36036.17531492416, 20655.828196505096, -6547.854131204383, 0.14, 1.018, 0.066, 192.0, 0.0, 0.0, 0.0, 0.0, 0.0, 0.0, 0.0, 0.0, 0.0, 1.69575452120591E9, 0.0, 2023-09-26 13:55:21.205
198.0, 73969.63375444815, 68892.14442874723, -19295.657491166294, -14350.624603107526, 33931.423298290174, 31312.514103950754, -187500.02235174447, 26536.59451444084, 45524.35672573528, 34556.86981163857, 4371.800049757963, -223.763313742079, 48681.786499236405, 36023.77009675147, 20672.23437693529, -6549.284642849522, 0.138, 1.018, 0.064, 192.0, 2.0, 40.0, 15.5, 104.0, 1.0, 0.0, 0.0, 0.0, 0.0, 1.695754521265568E9, 0.0, 2023-09-26 13:55:21.265
200.0, 73977.74743768542, 68894.17843749266, -19295.053994066002, -14362.403972435472, 33935.62542624777, 31305.20508351387, -187500.02235174447, 26545.691674434147, 45525.4966647025, 34556.914515127486, 4360.668881019221, -223.4503893197047, 48684.78163299342, 36018.22686412655, 20675.98947000378, -6554.894930707805, 0.138, 1.018, 0.064, 192.0, 0.0, 0.0, 0.0, 0.0, 0.0, 0.0, 0.0, 0.0, 0.0, 1.695754521265606E9, 0.0, 2023-09-26 13:55:21.265
202.0, 73980.87668190917, 68904.01320505301, -19293.824648120957, -14358.782989833713, 33934.88781868074, 31307.149685281478, -187500.02235174447, 26536.97449409658, 45528.62590892624, 34547.79500338972, 4363.082869420394, -229.8429882339225, 48685.094557415796, 36005.151093620196, 20687.94765328737, -6556.034869675025, 0.138, 1.018, 0.064, 192.0, 0.0, 0.0, 0.0, 0.0, 0.0, 0.0, 0.0, 0.0, 0.0, 1.695754521265616E9, 0.0, 2023-09-26 13:55:21.265
204.0, 73967.3091730248, 68896.54772240492, -19289.309595740986, -14370.405896950471, 33917.364051027784, 31300.4888654338, -187500.02235174447, 26542.562430210404, 45520.33341173332, 34561.13899482954, 4359.417183329723, -237.0178982040761, 48675.88563870021, 36017.82453272635, 20689.288757954688, -6550.469285305654, 0.138, 1.018, 0.064, 192.0, 0.0, 0.0, 0.0, 0.0, 0.0, 0.0, 0.0, 0.0, 0.0, 1.695754521265626E9, 0.0, 2023-09-26 13:55:21.265
206.0, 73976.87571965167, 68895.87717007127, -19285.1521712723, -14360.660536367957, 33920.515646995984, 31309.138990538002, -187500.02235174447, 26530.313674248897, 45514.968993064045, 34559.23909655084, 4351.079982647894, -241.60000581741403, 48673.94103693259, 36005.419314553656, 20685.48896139729, -6554.91728245226, 0.138, 1.018, 0.064, 192.0, 0.0, 0.0, 0.0, 0.0, 0.0, 0.0, 0.0, 0.0, 0.0, 1.695754521265678E9, 0.0, 2023-09-26 13:55:21.265
208.0, 73981.30136505382, 68890.5574548909, -19280.43595319223, -14359.364135189551, 33930.08219362285, 31306.501484692275, -187500.02235174447, 26544.97641861158, 45521.85333035628, 34584.13893987405, 4355.326814094403, -228.09955216640859, 48682.50175505898, 35997.55150050539, 20693.870865568028, -6542.467360790653, 0.134, 1.014, 0.068, 192.0, 2.0, 24.0, 15.5, 88.0, 1.0, 16.0, 0.0, 0.0, 0.0, 1.695754521265688E9, 0.0, 2023-09-26 13:55:21.265
210.0, 73989.88443492466, 68904.28142598647, -19278.08902002442, -14359.833521823111, 33925.120106353774, 31320.471324976843, -187500.02235174447, 26531.1630405382, 45522.590937923305, 34548.13027955655, 4351.169389625716, -231.9664039571767, 48688.15674640617, 36024.12772466275, 20700.129354015513, -6542.8696921908495, 0.134, 1.014, 0.068, 192.0, 0.0, 0.0, 0.0, 0.0, 0.0, 0.0, 0.0, 0.0, 0.0, 1.695754521265697E9, 0.0, 2023-09-26 13:55:21.265
212.0, 73987.17987384557, 68916.91016160371, -19272.34462169941, -14352.74801883078, 33931.982091901555, 31322.371223255544, -187500.02235174447, 26542.696540677138, 45529.095295559804, 34577.05343688172, 4362.255854875548, -220.16468288477458, 48698.21503141106, 36009.688497744624, 20708.24303725279, -6530.151549595779, 0.134, 1.014, 0.068, 192.0, 0.0, 0.0, 0.0, 0.0, 0.0, 0.0, 0.0, 0.0, 0.0, 1.695754521324961E9, 0.0, 2023-09-26 13:55:21.324
214.0, 73978.68621095255, 68901.50980967401, -19286.694441639716, -14370.60706265057, 33916.22411206056, 31306.501484692275, -187500.02235174447, 26531.565371938395, 45507.90584181617, 34574.77355894727, 4343.48038953309, -235.76620051457888, 48692.62709529723, 35999.205529595085, 20691.121601000024, -6548.2117591156675, 0.134, 1.014, 0.068, 192.0, 0.0, 0.0, 0.0, 0.0, 0.0, 0.0, 0.0, 0.0, 0.0, 1.695754521324993E9, 0.0, 2023-09-26 13:55:21.324
216.0, 73996.45584779452, 68902.31447247439, -19269.505950153583, -14355.229062465318, 33930.52922851196, 31324.315825023157, -187500.02235174447, 26537.689749919147, 45525.63077516923, 34583.22251835138, 4358.657224018243, -217.39306657231649, 48684.98279869352, 35997.55150050539, 20698.43062143691, -6541.774456712539, 0.134, 1.014, 0.068, 192.0, 0.0, 0.0, 0.0, 0.0, 0.0, 0.0, 0.0, 0.0, 0.0, 1.695754521325002E9, 0.0, 2023-09-26 13:55:21.325
218.0, 73996.67936523908, 68902.82856259687, -19277.798447346504, -14362.046344524188, 33917.38640277224, 31316.135086552513, -187500.02235174447, 26531.83359287186, 45526.52484494744, 34558.568544217174, 4354.946834438662, -218.42124681726062, 48701.56779307935, 35993.63994522571, 20691.300414955665, -6544.031982902526, 0.13, 1.014, 0.066, 192.0, 2.0, 8.0, 15.5, 88.0, 1.0, 8.0, 0.0, 0.0, 0.0, 1.695754521325011E9, 0.0, 2023-09-26 13:55:21.325
220.0, 73994.15361811563, 68912.0598330569, -19269.90828155378, -14364.505036414272, 33920.158019084694, 31313.452877217875, -187500.02235174447, 26529.9113428487, 45529.40821998218, 34562.23423030785, 4360.467715319123, -216.27547934955115, 48691.28599062991, 36002.066552885364, 20693.133258001002, -6546.110695136869, 0.13, 1.014, 0.066, 192.0, 0.0, 0.0, 0.0, 0.0, 0.0, 0.0, 0.0, 0.0, 0.0, 1.69575452132502E9, 0.0, 2023-09-26 13:55:21.325
222.0, 73985.77171394488, 68899.22993173957, -19295.925712099757, -14388.980196592833, 33911.9549288696, 31301.226473000825, -187500.02235174447, 26518.266083987488, 45521.04866755589, 34568.649180966524, 4342.0275261434945, -238.6048720604029, 48697.320961632846, 35995.33867780431, 20685.08662999709, -6552.860921962371, 0.13, 1.014, 0.066, 192.0, 0.0, 0.0, 0.0, 0.0, 0.0, 0.0, 0.0, 0.0, 0.0, 1.695754521325028E9, 0.0, 2023-09-26 13:55:21.325
224.0, 73998.86983619569, 68908.95294057763, -19279.675993880748, -14363.163931746953, 33920.89562665172, 31318.280854020224, -187500.02235174447, 26519.316615976884, 45527.03893506991, 34555.03696859324, 4340.105276120338, -233.75454351360125, 48695.912801732164, 35965.94613384559, 20682.60558636255, -6553.665584762763, 0.13, 1.014, 0.066, 192.0, 0.0, 0.0, 0.0, 0.0, 0.0, 0.0, 0.0, 0.0, 0.0, 1.695754521325037E9, 0.0, 2023-09-26 13:55:21.325
226.0, 73986.12934185617, 68898.29115847244, -19290.2036655192, -14361.711068357357, 33918.52634173946, 31322.326519766633, -187500.02235174447, 26531.140688793745, 45511.50447267348, 34561.92130588547, 4342.206340099137, -222.28809860802875, 48697.3433133773, 36004.68170698663, 20686.13716198649, -6543.584948013419, 0.13, 1.014, 0.066, 192.0, 0.0, 0.0, 0.0, 0.0, 0.0, 0.0, 0.0, 0.0, 0.0, 1.695754521325046E9, 0.0, 2023-09-26 13:55:21.325
228.0, 73973.34414402774, 68892.07737351386, -19287.253235251097, -14369.847103339089, 33907.52928346745, 31314.279891762722, -187500.02235174447, 26527.11737479179, 45505.20128073708, 34567.531593743755, 4341.133456365283, -220.03057241804274, 48685.496888815986, 36013.68946000212, 20683.969042774326, -6542.065029390458, 0.136, 1.012, 0.064, 192.0, 2.0, 32.0, 15.5, 80.0, 1.0, 0.0, 0.0, 0.0, 0.0, 1.695754521385177E9, 0.0, 2023-09-26 13:55:21.385
230.0, 73975.0652283508, 68894.44665842612, -19290.8518661084, -14363.70037361388, 33917.98989987253, 31318.90670286497, -187500.02235174447, 26534.851078373325, 45489.21978345153, 34580.3614950611, 4336.104313862838, -224.59032828692537, 48673.80692646586, 36000.50193077349, 20685.71247884184, -6539.62868924483, 0.136, 1.012, 0.064, 192.0, 0.0, 0.0, 0.0, 0.0, 0.0, 0.0, 0.0, 0.0, 0.0, 1.695754521385199E9, 0.0, 2023-09-26 13:55:21.385
232.0, 73983.24596682143, 68911.43398421217, -19281.44178169272, -14341.281573925207, 33920.180370829155, 31334.1952960724, -187500.02235174447, 26530.268970759986, 45489.599763107275, 34576.51699501479, 4341.8487121878525, -213.21329035917407, 48682.61351378125, 36010.13553263373, 20687.880598054006, -6531.023267629536, 0.136, 1.012, 0.064, 192.0, 0.0, 0.0, 0.0, 0.0, 0.0, 0.0, 0.0, 0.0, 0.0, 1.69575452138521E9, 0.0, 2023-09-26 13:55:21.385
234.0, 73984.40825753311, 68919.99470233855, -19273.708078111184, -14343.069713481631, 33935.35720531431, 31345.50527876679, -187500.02235174447, 26548.8656221468, 45496.662914355154, 34608.144713419046, 4348.464828546623, -200.36103729737252, 48688.60378129528, 36023.591282795824, 20697.894179569983, -6517.120482578335, 0.136, 1.012, 0.064, 192.0, 0.0, 0.0, 0.0, 0.0, 0.0, 0.0, 0.0, 0.0, 0.0, 1.695754521385219E9, 0.0, 2023-09-26 13:55:21.385
236.0, 73984.31885055528, 68926.90139137524, -19271.00351703209, -14334.777216288712, 33930.730394212056, 31346.68992122292, -187500.02235174447, 26543.72472092208, 45501.80381557987, 34609.530521575274, 4350.543540780966, -194.66134246126921, 48694.32582787584, 36031.12382067726, 20701.738679616294, -6515.198232555179, 0.136, 1.012, 0.064, 192.0, 0.0, 0.0, 0.0, 0.0, 0.0, 0.0, 0.0, 0.0, 0.0, 1.695754521385228E9, 0.0, 2023-09-26 13:55:21.385
238.0, 73989.03506863536, 68934.63509495677, -19270.444723420707, -14334.151367443965, 33936.56419951489, 31353.93188642644, -187500.02235174447, 26556.73343619507, 45495.45592015456, 34642.00760626884, 4355.416221072223, -184.69246443420226, 48700.07022620085, 36031.97318696656, 20700.196409248878, -6508.6491714297745, 0.14400000000000002, 1.014, 0.07200000000000001, 192.0, 2.0, 64.0, 15.5, 88.0, 1.0, 32.0, 0.0, 0.0, 0.0, 1.695754521385237E9, 0.0, 2023-09-26 13:55:21.385
240.0, 73972.18185331605, 68918.00539708203, -19284.325156727453, -14346.22130944983, 33915.44180100463, 31335.58110422863, -187500.02235174447, 26546.608095956817, 45487.43164389511, 34630.652920085544, 4352.689308248676, -185.72064467914637, 48699.422025611646, 36028.53101832045, 20698.654138881462, -6508.068026073936, 0.14400000000000002, 1.014, 0.07200000000000001, 192.0, 0.0, 0.0, 0.0, 0.0, 0.0, 0.0, 0.0, 0.0, 0.0, 1.695754521385246E9, 0.0, 2023-09-26 13:55:21.385
242.0, 73984.85529242222, 68921.58167619487, -19277.686688624228, -14338.21938493483, 33923.66724296418, 31342.845421176604, -187500.02235174447, 26550.139671580753, 45476.85926876775, 34638.74425157836, 4339.390020297768, -204.18318559923003, 48687.82147023934, 35994.26579407046, 20684.19256021888, -6527.379933283321, 0.14400000000000002, 1.014, 0.07200000000000001, 192.0, 0.0, 0.0, 0.0, 0.0, 0.0, 0.0, 0.0, 0.0, 0.0, 1.695754521445376E9, 0.0, 2023-09-26 13:55:21.445
244.0, 73981.07784760927, 68917.60306568183, -19281.106505525888, -14334.084312210598, 33916.64879520521, 31342.06311012067, -187500.02235174447, 26550.519651236493, 45491.00792300796, 34639.21363821193, 4351.772886726008, -183.79839465598997, 48702.64067681321, 36018.96447169357, 20685.444257908377, -6511.57724995342, 0.14400000000000002, 1.014, 0.07200000000000001, 192.0, 0.0, 0.0, 0.0, 0.0, 0.0, 0.0, 0.0, 0.0, 0.0, 1.695754521445395E9, 0.0, 2023-09-26 13:55:21.445
246.0, 73971.19837656002, 68915.45729821413, -19290.740107386126, -14342.89089952599, 33910.36795501327, 31335.849325162093, -187500.02235174447, 26554.364151282807, 45486.76109156145, 34637.80547831124, 4350.409430314235, -180.91501962125537, 48708.89916526069, 36013.51064604648, 20688.215874220834, -6509.990276097093, 0.14400000000000002, 1.014, 0.07200000000000001, 192.0, 0.0, 0.0, 0.0, 0.0, 0.0, 0.0, 0.0, 0.0, 0.0, 1.695754521445405E9, 0.0, 2023-09-26 13:55:21.445
248.0, 73994.37713556018, 68946.28035381799, -19260.922880282746, -14308.692730509369, 33933.881990180256, 31354.11070038208, -187500.02235174447, 26552.44190125965, 45479.92145775813, 34618.0241844683, 4345.849674445352, -188.20168831368548, 48685.60864753827, 36004.3464308198, 20675.408324647942, -6519.1544913237685, 0.138, 1.014, 0.07200000000000001, 192.0, 2.0, 40.0, 15.5, 88.0, 1.0, 32.0, 0.0, 0.0, 0.0, 1.695754521445416E9, 0.0, 2023-09-26 13:55:21.445
250.0, 73971.46659749349, 68922.1181180618, -19285.599206161405, -14333.816091277135, 33921.61088247429, 31335.178772828436, -187500.02235174447, 26561.53906125296, 45507.81643483835, 34676.96573459694, 4369.274302634514, -161.87133334533374, 48728.81456957037, 36032.15200092221, 20698.117697014535, -6497.607409668853, 0.138, 1.014, 0.07200000000000001, 192.0, 0.0, 0.0, 0.0, 0.0, 0.0, 0.0, 0.0, 0.0, 0.0, 1.695754521445454E9, 0.0, 2023-09-26 13:55:21.445
252.0, 73976.62985046266, 68933.67396994519, -19275.183293245234, -14323.109605683043, 33926.9082459102, 31344.991188644315, -187500.02235174447, 26555.01235187201, 45482.64837058167, 34621.08637345867, 4346.587282012378, -182.39023475530564, 48698.32679013334, 36001.507759273976, 20669.686278067384, -6522.775473925528, 0.138, 1.014, 0.07200000000000001, 192.0, 0.0, 0.0, 0.0, 0.0, 0.0, 0.0, 0.0, 0.0, 0.0, 1.695754521445463E9, 0.0, 2023-09-26 13:55:21.445
254.0, 73986.97870814547, 68946.03448462898, -19275.76443860107, -14330.284515653197, 33927.26587382148, 31337.592761229607, -187500.02235174447, 26559.080369362877, 45501.17796673512, 34645.47212665941, 4370.078965434905, -154.7634786085461, 48728.12166549226, 36035.549466079414, 20687.120638742523, -6507.956267351659, 0.138, 1.014, 0.07200000000000001, 192.0, 0.0, 0.0, 0.0, 0.0, 0.0, 0.0, 0.0, 0.0, 0.0, 1.695754521445472E9, 0.0, 2023-09-26 13:55:21.445
0.0, 73985.54819650033, 68949.99074339756, -19282.022927048558, -14318.058111436143, 33921.27560630746, 31338.218610074357, -187500.02235174447, 26550.027912858477, 45490.76205381895, 34629.49062937387, 4355.90795945024, -165.67112990273594, 48733.396677183715, 35997.81972143886, 20669.46276062283, -6522.931936136715, 0.138, 1.014, 0.07200000000000001, 192.0, 0.0, 0.0, 0.0, 0.0, 0.0, 0.0, 0.0, 0.0, 0.0, 1.695754521445481E9, 0.0, 2023-09-26 13:55:21.445
2.0, 73994.42183904909, 68960.56311852492, -19261.10169423839, -14315.912343968434, 33939.00053966052, 31342.800717687696, -187500.02235174447, 26565.718837466102, 45506.27416447093, 34653.13877500758, 4369.810744501441, -150.69546111768022, 48732.7037731056, 36021.89255021722, 20684.86311255254, -6509.453834230165, 0.138, 1.014, 0.07, 192.0, 2.0, 40.0, 15.5, 88.0, 1.0, 24.0, 0.0, 0.0, 0.0, 1.695754521505608E9, 0.0, 2023-09-26 13:55:21.505
4.0, 73991.06907738079, 68966.68749650568, -19262.71101983917, -14321.567335315625, 33927.355280799304, 31335.58110422863, -187500.02235174447, 26555.347628038842, 45503.94958304758, 34647.215562726924, 4369.922503223718, -160.7760978670237, 48725.37240092426, 36004.726410475545, 20690.361641688545, -6515.421749999732, 0.138, 1.014, 0.07, 192.0, 0.0, 0.0, 0.0, 0.0, 0.0, 0.0, 0.0, 0.0, 0.0, 1.695754521505621E9, 0.0, 2023-09-26 13:55:21.505
6.0, 73988.16335060161, 68956.53980452297, -19271.204682732186, -14333.704332554858, 33920.76151618499, 31323.645272689497, -187500.02235174447, 26553.604191971328, 45505.22363248153, 34650.18834473948, 4365.630968288299, -166.7887171255013, 48730.13332249324, 36029.067460187376, 20684.41607766343, -6521.143796580291, 0.138, 1.014, 0.07, 192.0, 0.0, 0.0, 0.0, 0.0, 0.0, 0.0, 0.0, 0.0, 0.0, 1.695754521505631E9, 0.0, 2023-09-26 13:55:21.505
8.0, 73986.08463836726, 68965.9275371942, -19262.91218553927, -14316.180564901897, 33926.394155787726, 31342.1972205874, -187500.02235174447, 26554.00652337152, 45499.09925450078, 34647.796708082766, 4368.782564256498, -162.9442170791885, 48723.941889279115, 36013.33183209084, 20689.37816493251, -6515.846433144383, 0.138, 1.014, 0.07, 192.0, 0.0, 0.0, 0.0, 0.0, 0.0, 0.0, 0.0, 0.0, 0.0, 1.69575452150564E9, 0.0, 2023-09-26 13:55:21.505
10.0, 73986.2634523229, 68955.8245487004, -19266.711982096673, -14323.288419638684, 33921.09679235182, 31333.52474373874, -187500.02235174447, 26558.700389707137, 45491.991399763996, 34643.728690591895, 4360.311253107936, -164.79941186897898, 48733.329621950346, 36021.289053116925, 20683.298490440666, -6518.483938990109, 0.138, 1.014, 0.07, 192.0, 0.0, 0.0, 0.0, 0.0, 0.0, 0.0, 0.0, 0.0, 0.0, 1.695754521505649E9, 0.0, 2023-09-26 13:55:21.505
12.0, 73993.03603089286, 68966.26281336103, -19257.1454354698, -14314.817108490124, 33929.679862222656, 31335.37993852853, -187500.02235174447, 26556.06288386141, 45496.41704516614, 34645.91916154852, 4364.111049665338, -163.3241967349287, 48736.056534773896, 36011.65545125669, 20685.28779569719, -6523.96011638166, 0.138, 1.016, 0.068, 192.0, 2.0, 40.0, 15.5, 96.0, 1.0, 16.0, 0.0, 0.0, 0.0, 1.695754521505658E9, 0.0, 2023-09-26 13:55:21.505
14.0, 73993.77363845988, 68968.25211861756, -19262.934537283723, -14319.935657970389, 33933.23378959105, 31337.972740885347, -187500.02235174447, 26563.796587442946, 45506.85530982677, 34662.19123151198, 4372.492953836078, -151.14249600678636, 48741.420953443165, 36024.08302117384, 20688.841723065583, -6516.069950588936, 0.138, 1.016, 0.068, 192.0, 0.0, 0.0, 0.0, 0.0, 0.0, 0.0, 0.0, 0.0, 0.0, 1.695754521505667E9, 0.0, 2023-09-26 13:55:21.505
16.0, 73989.88443492466, 68967.93919419518, -19265.549691384997, -14319.958009714845, 33923.66724296418, 31330.462554748367, -187500.02235174447, 26556.755787939524, 45496.12647248823, 34643.12519349161, 4362.635834531287, -166.185220025208, 48726.06530500237, 36014.98586118053, 20684.550188130164, -6529.726866451128, 0.138, 1.016, 0.068, 192.0, 0.0, 0.0, 0.0, 0.0, 0.0, 0.0, 0.0, 0.0, 0.0, 1.69575452156587E9, 0.0, 2023-09-26 13:55:21.565
18.0, 73992.27607158138, 68972.56600529743, -19256.2960691805, -14307.552791542148, 33931.780926201456, 31344.655912477487, -187500.02235174447, 26555.660552461213, 45510.40923719516, 34656.71505412043, 4377.119764938327, -147.34269944938416, 48726.15471198019, 36017.15398039269, 20693.021499278726, -6512.024284842526, 0.138, 1.016, 0.068, 192.0, 0.0, 0.0, 0.0, 0.0, 0.0, 0.0, 0.0, 0.0, 0.0, 1.695754521565885E9, 0.0, 2023-09-26 13:55:21.565
20.0, 73991.02437389188, 68960.2278423581, -19253.837377290416, -14315.822936990613, 33925.23186507605, 31337.883333907528, -187500.02235174447, 26562.63429673127, 45500.14978649018, 34665.96867632493, 4373.856410247852, -152.64006288529194, 48744.68430813364, 36014.78469548043, 20688.95348178786, -6511.689008675696, 0.138, 1.016, 0.068, 192.0, 0.0, 0.0, 0.0, 0.0, 0.0, 0.0, 0.0, 0.0, 0.0, 1.695754521565894E9, 0.0, 2023-09-26 13:55:21.565
22.0, 73991.04672563633, 68960.89839469176, -19258.084208736924, -14318.438091091883, 33930.596283745326, 31337.86098216307, -187500.02235174447, 26554.095930349344, 45500.797987079386, 34634.162143965026, 4371.889456735785, -157.75861236555724, 48726.892319547216, 36005.50872153148, 20679.72221132782, -6519.266250046045, 0.136, 1.016, 0.066, 192.0, 2.0, 32.0, 15.5, 96.0, 1.0, 8.0, 0.0, 0.0, 0.0, 1.695754521565903E9, 0.0, 2023-09-26 13:55:21.565
24.0, 73990.77850470287, 68956.2715835895, -19274.1998164892, -14317.432262591394, 33930.506876767504, 31334.217647816855, -187500.02235174447, 26561.941392653156, 45498.22753646702, 34651.46239417343, 4357.986671684584, -164.59824616888122, 48735.60949988479, 36017.04222167042, 20676.771781059717, -6518.886270390305, 0.136, 1.016, 0.066, 192.0, 0.0, 0.0, 0.0, 0.0, 0.0, 0.0, 0.0, 0.0, 0.0, 1.695754521565912E9, 0.0, 2023-09-26 13:55:21.565
26.0, 74007.98934793346, 68976.45520883265, -19234.011379958556, -14292.241846590263, 33954.44559507914, 31358.4022353175, -187500.02235174447, 26565.025933387988, 45506.96706854905, 34651.86472557363, 4376.896247493773, -150.5837023954037, 48742.627947643756, 36021.37846009475, 20686.27127245322, -6506.816328384439, 0.136, 1.016, 0.066, 192.0, 0.0, 0.0, 0.0, 0.0, 0.0, 0.0, 0.0, 0.0, 0.0, 1.69575452156592E9, 0.0, 2023-09-26 13:55:21.565
28.0, 74007.20703687752, 68968.29682210647, -19252.04923773399, -14305.272913607707, 33941.839211206345, 31337.883333907528, -187500.02235174447, 26565.584726999372, 45517.9417750766, 34666.43806295849, 4388.653265077265, -139.45253365666076, 48757.89418910673, 36018.67389901566, 20698.85530458156, -6497.205078268657, 0.136, 1.016, 0.066, 192.0, 0.0, 0.0, 0.0, 0.0, 0.0, 0.0, 0.0, 0.0, 0.0, 1.695754521565929E9, 0.0, 2023-09-26 13:55:21.565
30.0, 74012.79497299135, 68981.7302205241, -19241.163938184254, -14300.10966063853, 33946.935408942154, 31343.515973510264, -187500.02235174447, 26555.45938676112, 45503.994286536494, 34638.61014111163, 4384.831116775407, -149.3543564503618, 48740.593938898324, 36011.4989890455, 20690.831028322107, -6508.1797847962125, 0.136, 1.016, 0.066, 192.0, 0.0, 0.0, 0.0, 0.0, 0.0, 0.0, 0.0, 0.0, 0.0, 1.695754521565938E9, 0.0, 2023-09-26 13:55:21.565
32.0, 73998.0651733953, 68975.31526986543, -19252.742141812105, -14310.123242154508, 33939.62638850527, 31322.080650577624, -187500.02235174447, 26559.460349018616, 45516.354801220274, 34662.392397212076, 4385.144041197782, -137.0385452554876, 48756.35191873931, 36007.453323299094, 20690.361641688545, -6506.548107450975, 0.136, 1.014, 0.07, 192.0, 2.0, 32.0, 15.5, 88.0, 1.0, 24.0, 0.0, 0.0, 0.0, 1.695754521624764E9, 0.0, 2023-09-26 13:55:21.624
34.0, 73985.88347266716, 68965.43579881618, -19252.22805168963, -14306.479907808294, 33939.22405710507, 31333.30122629419, -187500.02235174447, 26543.612962199804, 45506.028295281925, 34651.64120812908, 4380.360767884346, -157.37863270981703, 48742.35972671029, 36007.98976516602, 20676.99529850427, -6522.998991370081, 0.136, 1.014, 0.07, 192.0, 0.0, 0.0, 0.0, 0.0, 0.0, 0.0, 0.0, 0.0, 0.0, 1.695754521624786E9, 0.0, 2023-09-26 13:55:21.624
36.0, 73985.14586510013, 68956.6739149897, -19254.217356946156, -14302.791869973169, 33940.945141428136, 31342.57720024314, -187500.02235174447, 26560.01914263, 45506.49768191548, 34645.29331270377, 4386.172221442726, -145.64396687078082, 48752.23919775953, 36012.72833499054, 20685.354850930555, -6509.945572608182, 0.136, 1.014, 0.07, 192.0, 0.0, 0.0, 0.0, 0.0, 0.0, 0.0, 0.0, 0.0, 0.0, 1.695754521624797E9, 0.0, 2023-09-26 13:55:21.624
38.0, 73978.55210048582, 68944.82749042839, -19262.643964605806, -14317.924000969411, 33929.92573141167, 31322.66179593346, -187500.02235174447, 26546.38457851226, 45493.176042220126, 34639.14658297856, 4376.560971326944, -159.07736528842037, 48740.102200520305, 36009.28616634443, 20672.256728679746, -6515.891136633294, 0.136, 1.014, 0.07, 192.0, 0.0, 0.0, 0.0, 0.0, 0.0, 0.0, 0.0, 0.0, 0.0, 1.695754521624839E9, 0.0, 2023-09-26 13:55:21.624
40.0, 73968.31500152529, 68934.50098449003, -19278.71486886917, -14327.73641678529, 33932.07149887938, 31321.074822077135, -187500.02235174447, 26547.524517479484, 45491.52201313043, 34639.97359752341, 4365.027471188006, -170.45440321617167, 48735.0507062734, 35987.60497422278, 20669.28394666719, -6523.289564048, 0.136, 1.014, 0.07, 192.0, 0.0, 0.0, 0.0, 0.0, 0.0, 0.0, 0.0, 0.0, 0.0, 1.695754521624851E9, 0.0, 2023-09-26 13:55:21.624
42.0, 73966.6609724356, 68930.85765014382, -19273.976299044647, -14334.151367443965, 33930.21630408958, 31312.15647603947, -187500.02235174447, 26531.38655798275, 45483.922420015624, 34616.48191410088, 4355.483276305589, -179.19393529819672, 48736.503569663, 36012.25894835698, 20666.13235069899, -6530.173901340235, 0.134, 1.012, 0.068, 192.0, 2.0, 24.0, 15.5, 80.0, 1.0, 16.0, 0.0, 0.0, 0.0, 1.695754521624861E9, 0.0, 2023-09-26 13:55:21.624
44.0, 73974.79700741732, 68942.45820551613, -19268.298955953, -14324.540117328183, 33941.36982457279, 31316.068031319148, -187500.02235174447, 26558.16394784021, 45489.26448694045, 34621.846332770154, 4364.20045664316, -179.68567367621347, 48743.231444744044, 35995.87511967124, 20672.457894379844, -6527.357581538866, 0.134, 1.012, 0.068, 192.0, 0.0, 0.0, 0.0, 0.0, 0.0, 0.0, 0.0, 0.0, 0.0, 1.69575452162487E9, 0.0, 2023-09-26 13:55:21.624
46.0, 73966.41510324659, 68938.23372581408, -19275.652679878793, -14330.440977864382, 33932.29501632393, 31312.15647603947, -187500.02235174447, 26541.221325543087, 45480.88258276971, 34634.18449570948, 4366.413279344235, -172.15313579477498, 48741.53271216544, 36000.59133775131, 20668.56869084462, -6528.117540850347, 0.134, 1.012, 0.068, 192.0, 0.0, 0.0, 0.0, 0.0, 0.0, 0.0, 0.0, 0.0, 0.0, 1.695754521685243E9, 0.0, 2023-09-26 13:55:21.685
48.0, 73963.57643170076, 68935.61857171281, -19281.82176134846, -14333.458463365849, 33940.38634781675, 31318.01263308676, -187500.02235174447, 26555.43703501666, 45489.37624566272, 34636.01733875481, 4369.631930545799, -166.29697874748456, 48742.56089241039, 36005.911052931675, 20664.925356498403, -6527.536395494509, 0.134, 1.012, 0.068, 192.0, 0.0, 0.0, 0.0, 0.0, 0.0, 0.0, 0.0, 0.0, 0.0, 1.695754521685279E9, 0.0, 2023-09-26 13:55:21.685
50.0, 73963.62113518968, 68934.41157751222, -19271.29408971001, -14316.02410269071, 33948.85765896531, 31328.42854600293, -187500.02235174447, 26559.63916297426, 45479.22855368001, 34615.43138211148, 4360.110087407838, -172.95779859516605, 48752.619177415276, 35993.41642778116, 20663.76306578673, -6525.10005534888, 0.134, 1.012, 0.068, 192.0, 0.0, 0.0, 0.0, 0.0, 0.0, 0.0, 0.0, 0.0, 0.0, 1.695754521685288E9, 0.0, 2023-09-26 13:55:21.685
52.0, 73947.55023092631, 68926.83433614187, -19282.2017410042, -14333.100835454565, 33941.280417594964, 31320.538380210208, -187500.02235174447, 26565.338857810362, 45475.20523967806, 34638.766603322816, 4361.875875219807, -168.84507761538956, 48748.1041250353, 36012.348355334805, 20669.99920248976, -6512.404264498266, 0.13, 1.012, 0.062, 192.0, 2.0, 8.0, 15.5, 80.0, 0.5, 120.0, 0.0, 0.0, 0.0, 1.695754521685297E9, 0.0, 2023-09-26 13:55:21.685
54.0, 73949.27131524937, 68927.8178128979, -19290.315424241475, -14340.02987623571, 33927.28822556594, 31311.284758005713, -187500.02235174447, 26553.090101848855, 45469.41613786413, 34614.82788501118, 4344.039183144472, -195.15308083928596, 48740.035145286936, 35990.91303240216, 20649.837928991074, -6533.43725603071, 0.13, 1.012, 0.062, 192.0, 0.0, 0.0, 0.0, 0.0, 0.0, 0.0, 0.0, 0.0, 0.0, 1.695754521685307E9, 0.0, 2023-09-26 13:55:21.685
56.0, 73949.98657107193, 68929.18126930967, -19274.62449963385, -14331.402102875962, 33937.659434993206, 31315.06220281866, -187500.02235174447, 26558.78979668496, 45482.02252173692, 34628.59655959565, 4360.892398463774, -180.91501962125537, 48743.41025869969, 35991.80710218038, 20660.81263551863, -6524.071875103936, 0.13, 1.012, 0.062, 192.0, 0.0, 0.0, 0.0, 0.0, 0.0, 0.0, 0.0, 0.0, 0.0, 1.695754521685316E9, 0.0, 2023-09-26 13:55:21.685
58.0, 73951.95352458401, 68932.60108621133, -19273.417505433263, -14329.032817963698, 33942.599170517824, 31313.85520861807, -187500.02235174447, 26546.228116301074, 45473.14887918817, 34627.635434584074, 4352.286976848481, -184.22307780064082, 48743.05263078841, 35982.844052653796, 20657.102245939048, -6530.91150890726, 0.13, 1.012, 0.062, 192.0, 0.0, 0.0, 0.0, 0.0, 0.0, 0.0, 0.0, 0.0, 0.0, 1.695754521685325E9, 0.0, 2023-09-26 13:55:21.685
60.0, 73944.37628321366, 68930.54472572145, -19280.458304936685, -14333.41375987694, 33940.520458283485, 31314.346946996087, -187500.02235174447, 26549.960857625112, 45482.62601883722, 34628.842428784665, 4357.450229817657, -179.93154286522184, 48750.11578203628, 36000.814855195866, 20664.120693698012, -6524.988296626604, 0.13, 1.012, 0.062, 192.0, 0.0, 0.0, 0.0, 0.0, 0.0, 0.0, 0.0, 0.0, 0.0, 1.695754521685334E9, 0.0, 2023-09-26 13:55:21.685
62.0, 73941.22468724546, 68932.15405132223, -19293.981110332144, -14336.833576778601, 33938.352339071316, 31313.18465628441, -187500.02235174447, 26546.116357578798, 45469.79611751987, 34600.723934259884, 4341.915767421218, -199.3999122857943, 48740.370421453765, 35990.13072134623, 20646.75338825624, -6539.606337500374, 0.13, 1.014, 0.07, 192.0, 2.0, 8.0, 15.5, 88.0, 1.0, 24.0, 0.0, 0.0, 0.0, 1.695754521746071E9, 0.0, 2023-09-26 13:55:21.746
64.0, 73935.48028892044, 68925.33676926336, -19291.790639375526, -14338.532309357204, 33951.31635085539, 31308.401382970977, -187500.02235174447, 26556.755787939524, 45475.339350144786, 34613.77735302178, 4353.046936159961, -196.8518134178893, 48745.488970934035, 35978.59722120729, 20656.14112092747, -6528.475168761632, 0.13, 1.014, 0.07, 192.0, 0.0, 0.0, 0.0, 0.0, 0.0, 0.0, 0.0, 0.0, 0.0, 1.695754521746092E9, 0.0, 2023-09-26 13:55:21.746
66.0, 73949.45012920501, 68935.81973741291, -19277.23965373512, -14327.758768529746, 33946.77894673097, 31327.512124480265, -187500.02235174447, 26566.076465377388, 45469.05850995285, 34616.70543154543, 4351.370555325813, -191.04035985950946, 48750.4063547142, 35984.45337825458, 20651.961344714327, -6535.538320009508, 0.13, 1.014, 0.07, 192.0, 0.0, 0.0, 0.0, 0.0, 0.0, 0.0, 0.0, 0.0, 0.0, 1.695754521746103E9, 0.0, 2023-09-26 13:55:21.746
68.0, 73953.45109146251, 68947.91203116323, -19269.05891526448, -14327.445844107371, 33951.29399911094, 31327.288607035713, -187500.02235174447, 26569.608041001327, 45488.4374723956, 34618.918254246506, 4368.335529367391, -172.64487417279176, 48746.00306105651, 36007.76624772147, 20670.89327226797, -6515.980543611115, 0.13, 1.014, 0.07, 192.0, 0.0, 0.0, 0.0, 0.0, 0.0, 0.0, 0.0, 0.0, 0.0, 1.695754521746115E9, 0.0, 2023-09-26 13:55:21.746
70.0, 73934.54151565331, 68930.85765014382, -19290.2036655192, -14336.118320956031, 33933.54671401343, 31313.095249306592, -187500.02235174447, 26575.553605026438, 45488.10219622877, 34619.07471645769, 4359.193665885171, -189.78866217001226, 48747.858255846295, 35994.77988419293, 20654.21887090431, -6526.262346060556, 0.13, 1.014, 0.07, 192.0, 0.0, 0.0, 0.0, 0.0, 0.0, 0.0, 0.0, 0.0, 0.0, 1.695754521746124E9, 0.0, 2023-09-26 13:55:21.746
72.0, 73924.7961550708, 68916.32901624788, -19296.19393303322, -14335.246602922274, 33930.55158025641, 31308.446086459888, -187500.02235174447, 26560.756750197026, 45470.42196636462, 34605.55191106223, 4351.527017537001, -187.84406040240054, 48722.556081122886, 35980.69828518609, 20641.545431798153, -6537.304107821478, 0.134, 1.014, 0.07, 192.0, 2.0, 24.0, 15.5, 88.0, 1.0, 24.0, 0.0, 0.0, 0.0, 1.695754521746133E9, 0.0, 2023-09-26 13:55:21.746
74.0, 73933.26746621936, 68919.48061221608, -19292.170619031265, -14341.952126258866, 33943.29207459594, 31300.84649334508, -187500.02235174447, 26566.50114852204, 45461.12364067121, 34615.38667862257, 4343.212168599626, -194.5942872279033, 48732.45790391659, 35984.27456429894, 20636.426882317886, -6541.260366590067, 0.134, 1.014, 0.07, 192.0, 0.0, 0.0, 0.0, 0.0, 0.0, 0.0, 0.0, 0.0, 0.0, 1.695754521746142E9, 0.0, 2023-09-26 13:55:21.746
76.0, 73934.87679182015, 68932.98106586708, -19292.43883996473, -14328.608134819047, 33942.97915017357, 31311.061240561157, -187500.02235174447, 26560.466177519105, 45468.94675123057, 34597.6170417806, 4356.444401317168, -185.765348168057, 48741.778581354454, 35986.86736665575, 20648.65328653494, -6530.19625308469, 0.134, 1.014, 0.07, 192.0, 0.0, 0.0, 0.0, 0.0, 0.0, 0.0, 0.0, 0.0, 0.0, 1.695754521805812E9, 0.0, 2023-09-26 13:55:21.805
78.0, 73928.5512481393, 68925.7167489191, -19298.987901090135, -14336.677114567414, 33939.35816757181, 31305.607414914062, -187500.02235174447, 26571.530291024483, 45471.47249835402, 34622.65099557054, 4354.656261760743, -181.80908939946764, 48748.3052907354, 35979.04425609639, 20642.819481232105, -6529.8386251734055, 0.134, 1.014, 0.07, 192.0, 0.0, 0.0, 0.0, 0.0, 0.0, 0.0, 0.0, 0.0, 0.0, 1.695754521805833E9, 0.0, 2023-09-26 13:55:21.805
80.0, 73933.96037029749, 68941.85470841583, -19290.896569597313, -14319.086291681087, 33940.8110309614, 31313.452877217875, -187500.02235174447, 26557.761616440013, 45469.527896586405, 34610.08931518666, 4354.700965249654, -182.63610394431402, 48738.6046336418, 35995.137512104215, 20645.79226324466, -6529.458645517665, 0.134, 1.014, 0.07, 192.0, 0.0, 0.0, 0.0, 0.0, 0.0, 0.0, 0.0, 0.0, 0.0, 1.695754521805842E9, 0.0, 2023-09-26 13:55:21.805
82.0, 73931.47932666294, 68930.05298734343, -19299.613749934884, -14336.252431422763, 33937.54767627092, 31303.975737568828, -187500.02235174447, 26560.063846118912, 45471.5842570763, 34630.4741061299, 4355.1703518832155, -180.15506030977494, 48752.7085843931, 36014.874102458256, 20645.56874580011, -6529.279831562023, 0.136, 1.014, 0.074, 192.0, 2.0, 32.0, 15.5, 88.0, 1.0, 40.0, 0.0, 0.0, 0.0, 1.69575452180585E9, 0.0, 2023-09-26 13:55:21.805
84.0, 73946.34323672572, 68946.79444394045, -19283.29697648251, -14302.791869973169, 33949.84113572134, 31328.160325069468, -187500.02235174447, 26564.69065722116, 45478.22272517953, 34616.66072805652, 4361.67470951971, -172.8013363839789, 48760.442287974634, 36002.71475347457, 20651.581365058588, -6520.808520413461, 0.136, 1.014, 0.074, 192.0, 0.0, 0.0, 0.0, 0.0, 0.0, 0.0, 0.0, 0.0, 0.0, 1.695754521805889E9, 0.0, 2023-09-26 13:55:21.805
86.0, 73940.19650700051, 68941.56413573792, -19294.562255687983, -14322.394349860473, 33938.32998732686, 31302.3887637125, -187500.02235174447, 26564.556546754426, 45486.71638807254, 34622.76275429282, 4361.764116497531, -172.62252242833645, 48769.114764823295, 35986.57679397784, 20649.614411546518, -6519.199194812679, 0.136, 1.014, 0.074, 192.0, 0.0, 0.0, 0.0, 0.0, 0.0, 0.0, 0.0, 0.0, 0.0, 1.695754521805898E9, 0.0, 2023-09-26 13:55:21.805
88.0, 73940.66589363407, 68946.86149917383, -19293.265854509576, -14319.868602737022, 33938.95583617161, 31309.563673682653, -187500.02235174447, 26546.608095956817, 45472.52303034342, 34611.60923380962, 4363.932235709695, -178.90336262027773, 48749.802857613904, 36004.793465708906, 20646.999257445248, -6522.373142525333, 0.136, 1.014, 0.074, 192.0, 0.0, 0.0, 0.0, 0.0, 0.0, 0.0, 0.0, 0.0, 0.0, 1.695754521805907E9, 0.0, 2023-09-26 13:55:21.805
90.0, 73943.32575122426, 68951.35419980934, -19300.552523202005, -14328.161099929941, 33944.47671705207, 31302.075839290126, -187500.02235174447, 26558.78979668496, 45475.20523967806, 34633.13396372008, 4364.379270598802, -171.81785962794538, 48751.94862508162, 36010.29199484491, 20647.692161523362, -6525.927069893726, 0.136, 1.014, 0.074, 192.0, 0.0, 0.0, 0.0, 0.0, 0.0, 0.0, 0.0, 0.0, 0.0, 1.695754521805916E9, 0.0, 2023-09-26 13:55:21.805
92.0, 73922.2480562029, 68925.023844841, -19302.0053865916, -14330.284515653197, 33934.44078379164, 31300.377106711523, -187500.02235174447, 26557.225174573086, 45483.00599849296, 34627.61308283962, 4364.468677576623, -172.68957766170237, 48760.46463971909, 36005.776942464945, 20645.3228766111, -6534.2419188311005, 0.138, 1.012, 0.076, 192.0, 2.0, 40.0, 15.5, 80.0, 1.0, 48.0, 0.0, 0.0, 0.0, 1.69575452186598E9, 0.0, 2023-09-26 13:55:21.865
94.0, 73908.92641650754, 68902.60504515232, -19312.935389630245, -14351.69748684138, 33924.8071819314, 31285.960231537847, -187500.02235174447, 26564.154215354232, 45469.19262041958, 34598.354649347624, 4347.593110512867, -197.5223657515485, 48749.44522970262, 35969.343599002794, 20633.07412064959, -6545.328384080933, 0.138, 1.012, 0.076, 192.0, 0.0, 0.0, 0.0, 0.0, 0.0, 0.0, 0.0, 0.0, 0.0, 1.695754521866002E9, 0.0, 2023-09-26 13:55:21.866
96.0, 73919.90112303509, 68917.82658312639, -19297.62444467836, -14334.352533144061, 33931.646815734726, 31299.348926466577, -187500.02235174447, 26555.548793738937, 45468.72323378602, 34577.83574793765, 4352.5775495264, -200.6516099752915, 48748.97584306906, 35978.440758996105, 20627.106204880027, -6543.540244524508, 0.138, 1.012, 0.076, 192.0, 0.0, 0.0, 0.0, 0.0, 0.0, 0.0, 0.0, 0.0, 0.0, 1.695754521866011E9, 0.0, 2023-09-26 13:55:21.866
98.0, 73921.10811723568, 68906.56130392091, -19300.373709246363, -14341.728608814314, 33928.58462674435, 31282.04867625817, -187500.02235174447, 26557.895726906747, 45482.268390925936, 34597.84055922515, 4365.832133988397, -182.32317952193972, 48752.84269485983, 35992.18708183611, 20637.388007329468, -6533.81723568645, 0.138, 1.012, 0.076, 192.0, 0.0, 0.0, 0.0, 0.0, 0.0, 0.0, 0.0, 0.0, 0.0, 1.69575452186602E9, 0.0, 2023-09-26 13:55:21.866
100.0, 73941.38114945665, 68924.93443786316, -19283.945177071713, -14319.868602737022, 33940.85573445031, 31301.04765904518, -187500.02235174447, 26549.29030529145, 45484.48121362701, 34581.03204739476, 4363.865180476329, -188.40285401378324, 48751.99332857053, 35971.60112519278, 20630.74953922624, -6546.468323048154, 0.138, 1.012, 0.076, 192.0, 0.0, 0.0, 0.0, 0.0, 0.0, 0.0, 0.0, 0.0, 0.0, 1.695754521866029E9, 0.0, 2023-09-26 13:55:21.866
102.0, 73933.87096331966, 68907.1648010212, -19293.757592887592, -14343.449693137372, 33940.229885605564, 31291.414057184942, -187500.02235174447, 26551.77134892599, 45508.889318572205, 34595.60538477962, 4383.601770830366, -170.9014381052778, 48777.98840737205, 35980.385360763714, 20649.90498422444, -6524.049523359481, 0.14, 1.01, 0.074, 192.0, 2.0, 48.0, 15.5, 72.0, 1.0, 40.0, 0.0, 0.0, 0.0, 1.695754521866038E9, 0.0, 2023-09-26 13:55:21.866
104.0, 73922.76214632537, 68899.52050441748, -19304.531133715052, -14342.801492548168, 33931.80327794591, 31278.964135523336, -187500.02235174447, 26541.69071217665, 45488.4374723956, 34570.72789320086, 4358.612520529333, -200.6069064863809, 48765.65024443272, 35971.31055251486, 20623.306408322624, -6552.078610906436, 0.14, 1.01, 0.074, 192.0, 0.0, 0.0, 0.0, 0.0, 0.0, 0.0, 0.0, 0.0, 0.0, 1.695754521866047E9, 0.0, 2023-09-26 13:55:21.866
106.0, 73919.40938465708, 68900.74985036252, -19298.63027317885, -14342.64503033698, 33929.813972689386, 31276.728961077806, -187500.02235174447, 26546.719854679093, 45497.57933587782, 34577.522823515275, 4371.040090446483, -189.18516506971898, 48762.4092414867, 35969.433005980616, 20626.94974266884, -6547.518855037553, 0.14, 1.01, 0.074, 192.0, 0.0, 0.0, 0.0, 0.0, 0.0, 0.0, 0.0, 0.0, 0.0, 1.695754521925808E9, 0.0, 2023-09-26 13:55:21.925
108.0, 73935.14501275361, 68915.39024298075, -19285.465095694675, -14325.031855706198, 33942.04037690644, 31289.983545539802, -187500.02235174447, 26546.272819789985, 45505.044818525894, 34575.712332214396, 4374.594017814877, -192.82849941593403, 48769.65120669022, 35950.2328574935, 20625.69804497934, -6546.1553986257795, 0.14, 1.01, 0.074, 192.0, 0.0, 0.0, 0.0, 0.0, 0.0, 0.0, 0.0, 0.0, 0.0, 1.695754521925832E9, 0.0, 2023-09-26 13:55:21.925
110.0, 73910.69220431951, 68892.2114839806, -19300.932502857748, -14348.434132150905, 33939.760498972, 31277.91360353394, -187500.02235174447, 26553.62654371578, 45503.793120836395, 34575.913497914495, 4372.939988725185, -188.76048192506815, 48782.682273707665, 35981.50294798648, 20636.158661384423, -6538.667564233251, 0.14, 1.01, 0.074, 192.0, 0.0, 0.0, 0.0, 0.0, 0.0, 0.0, 0.0, 0.0, 0.0, 1.695754521925842E9, 0.0, 2023-09-26 13:55:21.925
112.0, 73901.32682339274, 68883.78487632095, -19309.426165750763, -14352.41274266395, 33919.48746675104, 31270.135196463492, -187500.02235174447, 26540.751938909525, 45483.721254315526, 34554.50052672631, 4349.515360536023, -221.8857672078332, 48761.626930430764, 35944.01907253493, 20617.159678597414, -6559.812314487972, 0.14200000000000002, 1.014, 0.07200000000000001, 192.0, 2.0, 56.0, 15.5, 88.0, 1.0, 32.0, 0.0, 0.0, 0.0, 1.69575452192585E9, 0.0, 2023-09-26 13:55:21.925
114.0, 73925.44435566002, 68910.38345222277, -19283.766363116072, -14329.971591230822, 33946.734243242056, 31290.162359495447, -187500.02235174447, 26545.736377923058, 45491.29849568588, 34566.92809664346, 4366.256817133048, -202.32799080943954, 48759.10118330731, 35954.70320638457, 20625.85450719053, -6546.021288159048, 0.14200000000000002, 1.014, 0.07200000000000001, 192.0, 0.0, 0.0, 0.0, 0.0, 0.0, 0.0, 0.0, 0.0, 0.0, 1.69575452192586E9, 0.0, 2023-09-26 13:55:21.925
116.0, 73926.6513498606, 68905.24255099804, -19291.745935886614, -14336.69946631187, 33940.8110309614, 31286.80959782715, -187500.02235174447, 26541.936581365655, 45505.2906877149, 34575.37705604757, 4376.873895749319, -189.02870285853183, 48778.52484923898, 35973.746892660485, 20635.041074161658, -6540.411000300765, 0.14200000000000002, 1.014, 0.07200000000000001, 192.0, 0.0, 0.0, 0.0, 0.0, 0.0, 0.0, 0.0, 0.0, 0.0, 1.695754521925869E9, 0.0, 2023-09-26 13:55:21.925
118.0, 73926.4948876494, 68903.63322539727, -19297.62444467836, -14340.70042856937, 33931.40094654571, 31283.367429181035, -187500.02235174447, 26529.285494003954, 45498.965144034046, 34566.88339315455, 4374.05757594795, -190.92860113723293, 48770.67938693517, 35973.07634032683, 20629.900172936937, -6543.3390788244105, 0.14200000000000002, 1.014, 0.07200000000000001, 192.0, 0.0, 0.0, 0.0, 0.0, 0.0, 0.0, 0.0, 0.0, 0.0, 1.695754521925877E9, 0.0, 2023-09-26 13:55:21.925
120.0, 73922.0468905028, 68902.51563817449, -19303.167677303278, -14341.035704736198, 33922.48260050805, 31281.57928962461, -187500.02235174447, 26525.77627012447, 45496.97583877753, 34574.237117080345, 4363.462849076134, -200.18222334173007, 48782.92814289667, 35954.524392428924, 20613.583399484563, -6556.571311541952, 0.14200000000000002, 1.014, 0.07200000000000001, 192.0, 0.0, 0.0, 0.0, 0.0, 0.0, 0.0, 0.0, 0.0, 0.0, 1.695754521925886E9, 0.0, 2023-09-26 13:55:21.925
122.0, 73922.22570445844, 68900.72749861807, -19295.925712099757, -14341.84036753659, 33928.18229534415, 31281.08755124659, -187500.02235174447, 26528.279665503465, 45501.557946390865, 34578.84157643814, 4368.24612238957, -196.71770295115746, 48777.51902073849, 35979.24542179649, 20620.89241992145, -6548.122352137846, 0.136, 1.014, 0.07200000000000001, 192.0, 2.0, 32.0, 15.5, 88.0, 1.0, 32.0, 0.0, 0.0, 0.0, 1.695754521986592E9, 0.0, 2023-09-26 13:55:21.986
124.0, 73915.98956775542, 68897.19592299413, -19313.896514641823, -14360.861702068056, 33921.365013285285, 31264.815481283127, -187500.02235174447, 26531.76653763849, 45482.78248104841, 34578.506300271314, 4351.14703788126, -216.72251423865728, 48760.41993623018, 35951.797479605375, 20607.07904184807, -6565.042622690514, 0.136, 1.014, 0.07200000000000001, 192.0, 0.0, 0.0, 0.0, 0.0, 0.0, 0.0, 0.0, 0.0, 0.0, 1.695754521986611E9, 0.0, 2023-09-26 13:55:21.986
126.0, 73918.69412883451, 68897.79942009442, -19308.39798550582, -14348.74705657328, 33927.087059865844, 31270.872804030518, -187500.02235174447, 26526.62563641377, 45486.96225726155, 34563.01654136378, 4354.589206527377, -211.7604269695791, 48758.497686207025, 35947.93062781461, 20603.346300524034, -6566.853113991394, 0.136, 1.014, 0.07200000000000001, 192.0, 0.0, 0.0, 0.0, 0.0, 0.0, 0.0, 0.0, 0.0, 0.0, 1.695754521986621E9, 0.0, 2023-09-26 13:55:21.986
128.0, 73914.96138751047, 68887.20469322261, -19319.082119355455, -14361.107571257064, 33926.103583109805, 31257.305295146147, -187500.02235174447, 26532.8617731168, 45477.2839519124, 34585.8153207082, 4350.43178205869, -205.14431061080822, 48761.24695077503, 35953.22799125052, 20604.106259835513, -6561.041660433014, 0.136, 1.014, 0.07200000000000001, 192.0, 0.0, 0.0, 0.0, 0.0, 0.0, 0.0, 0.0, 0.0, 0.0, 1.695754521986661E9, 0.0, 2023-09-26 13:55:21.986
130.0, 73916.83893404472, 68892.0103182805, -19319.43974726674, -14349.082332740109, 33918.213417317085, 31259.00402772475, -187500.02235174447, 26509.99593853902, 45479.20620193556, 34563.66474195298, 4343.390982555268, -210.17345311325232, 48759.79408738543, 35935.43600266409, 20596.70783242081, -6576.419660618265, 0.136, 1.014, 0.07200000000000001, 192.0, 0.0, 0.0, 0.0, 0.0, 0.0, 0.0, 0.0, 0.0, 0.0, 1.695754521986674E9, 0.0, 2023-09-26 13:55:21.986
132.0, 73918.85059104569, 68898.49232417253, -19315.34937803142, -14348.79176006219, 33926.84119067683, 31261.105091703546, -187500.02235174447, 26525.19512476863, 45488.75039681797, 34571.91253565699, 4355.036241416484, -196.5165372510597, 48761.917503108685, 35948.802345848366, 20608.55425698212, -6562.472172078154, 0.134, 1.012, 0.07200000000000001, 192.0, 2.0, 24.0, 15.5, 80.0, 1.0, 32.0, 0.0, 0.0, 0.0, 1.695754521986686E9, 0.0, 2023-09-26 13:55:21.986
134.0, 73913.91085552107, 68898.08999277235, -19331.48733752815, -14356.905443299467, 33924.00251913101, 31257.57351607961, -187500.02235174447, 26518.511953176494, 45472.99241697698, 34561.49662274082, 4347.503703535045, -207.35713331188362, 48757.715375151085, 35937.00062477597, 20595.12085856448, -6571.703442538195, 0.134, 1.012, 0.07200000000000001, 192.0, 0.0, 0.0, 0.0, 0.0, 0.0, 0.0, 0.0, 0.0, 0.0, 1.695754521986695E9, 0.0, 2023-09-26 13:55:21.986
136.0, 73914.62611134363, 68894.84898982632, -19319.327988544464, -14350.803417063167, 33922.683766208145, 31267.028303984203, -187500.02235174447, 26537.39917724123, 45475.13818444469, 34576.00290489232, 4349.314194835924, -213.6603252482802, 48752.88739834874, 35919.54391235637, 20594.60676844201, -6561.0640121774695, 0.134, 1.012, 0.07200000000000001, 192.0, 0.0, 0.0, 0.0, 0.0, 0.0, 0.0, 0.0, 0.0, 0.0, 1.695754522046021E9, 0.0, 2023-09-26 13:55:22.046
138.0, 73911.00512874188, 68881.79557106443, -19324.066558368988, -14358.112437500053, 33914.14539982622, 31263.67554231591, -187500.02235174447, 26526.29036024694, 45471.04781520937, 34557.36155001659, 4345.492046534067, -222.086932907931, 48746.15952326769, 35937.7829358319, 20598.898303377428, -6554.760820241073, 0.134, 1.012, 0.07200000000000001, 192.0, 0.0, 0.0, 0.0, 0.0, 0.0, 0.0, 0.0, 0.0, 0.0, 1.695754522046052E9, 0.0, 2023-09-26 13:55:22.046
140.0, 73921.86807654717, 68885.93064378866, -19322.412529279296, -14353.977364775821, 33918.079306850355, 31261.686237059384, -187500.02235174447, 26528.72670039257, 45483.296571170875, 34553.87467788156, 4354.097468149361, -217.25895610558464, 48768.01952934498, 35950.188154004594, 20595.25496903121, -6554.894930707805, 0.134, 1.012, 0.07200000000000001, 192.0, 0.0, 0.0, 0.0, 0.0, 0.0, 0.0, 0.0, 0.0, 0.0, 1.695754522046063E9, 0.0, 2023-09-26 13:55:22.046
142.0, 73920.10228873519, 68887.9646525341, -19328.760424704604, -14359.654707867468, 33913.76542017048, 31256.366521879023, -187500.02235174447, 26512.655796129206, 45479.56382984684, 34546.275084766756, 4345.402639556246, -225.10441840939743, 48754.02733731596, 35944.06377602384, 20585.241387515234, -6570.429393104243, 0.134, 1.014, 0.078, 192.0, 2.0, 24.0, 15.5, 88.0, 1.0, 56.0, 0.0, 0.0, 0.0, 1.695754522046072E9, 0.0, 2023-09-26 13:55:22.046
144.0, 73925.06437600427, 68903.49911493053, -19319.663264711293, -14351.496321141281, 33929.2104755891, 31265.1284057055, -187500.02235174447, 26518.44489794313, 45476.456937367555, 34573.83478568015, 4354.365689082824, -219.13650263983044, 48750.29459599192, 35935.90538929765, 20590.49404746223, -6566.651948291296, 0.134, 1.014, 0.078, 192.0, 0.0, 0.0, 0.0, 0.0, 0.0, 0.0, 0.0, 0.0, 0.0, 1.695754522046081E9, 0.0, 2023-09-26 13:55:22.046
146.0, 73932.21693422996, 68911.63514991225, -19305.805183149005, -14336.967687245333, 33941.548638528424, 31281.28871694669, -187500.02235174447, 26522.9599503231, 45493.98070502051, 34595.44892256843, 4375.264570148536, -206.2842495780289, 48772.93691312515, 35957.251305252474, 20611.012948872205, -6550.558692283475, 0.134, 1.014, 0.078, 192.0, 0.0, 0.0, 0.0, 0.0, 0.0, 0.0, 0.0, 0.0, 0.0, 1.69575452204609E9, 0.0, 2023-09-26 13:55:22.046
148.0, 73932.57456214125, 68905.19784750913, -19313.136555330344, -14339.091102968587, 33938.44174604914, 31279.500577390267, -187500.02235174447, 26531.87829636077, 45495.56767887684, 34580.3614950611, 4371.509477080045, -197.43295877372728, 48790.304218566926, 35943.32616845681, 20607.481373248265, -6544.0990381358915, 0.134, 1.014, 0.078, 192.0, 0.0, 0.0, 0.0, 0.0, 0.0, 0.0, 0.0, 0.0, 0.0, 1.695754522046099E9, 0.0, 2023-09-26 13:55:22.046
150.0, 73911.92155026455, 68886.02005076648, -19340.271573099086, -14358.492417155794, 33909.42918174615, 31252.097338688058, -187500.02235174447, 26517.975511309567, 45488.21395495105, 34562.39069251903, 4365.00511944355, -210.37461881335008, 48777.51902073849, 35937.87234280972, 20592.59511144103, -6554.827875474439, 0.134, 1.014, 0.078, 192.0, 0.0, 0.0, 0.0, 0.0, 0.0, 0.0, 0.0, 0.0, 0.0, 1.695754522046163E9, 0.0, 2023-09-26 13:55:22.046
152.0, 73916.92834102253, 68887.69643160062, -19328.156927604312, -14358.201844477875, 33916.872312649764, 31256.72414979031, -187500.02235174447, 26522.021177055976, 45470.26550415343, 34554.34406451512, 4344.776790711498, -226.66904052126893, 48759.63762517424, 35928.32814792731, 20578.1558845229, -6573.759803028083, 0.146, 1.014, 0.074, 192.0, 2.0, 72.0, 15.5, 88.0, 1.0, 40.0, 0.0, 0.0, 0.0, 1.695754522105705E9, 0.0, 2023-09-26 13:55:22.105
154.0, 73927.81364057228, 68900.50398117352, -19323.30659905751, -14349.149387973475, 33924.31544355339, 31270.068141230124, -187500.02235174447, 26527.653816658716, 45478.625056579716, 34572.24781182382, 4356.310290850436, -218.89063345082207, 48772.84750614733, 35936.911217798144, 20590.471695717777, -6565.10967792388, 0.146, 1.014, 0.074, 192.0, 0.0, 0.0, 0.0, 0.0, 0.0, 0.0, 0.0, 0.0, 0.0, 1.695754522105729E9, 0.0, 2023-09-26 13:55:22.105
156.0, 73929.02063477285, 68886.26591995549, -19331.375578805873, -14366.404934692971, 33911.507893980495, 31256.45592885684, -187500.02235174447, 26522.647025900726, 45484.99530374948, 34572.96306764639, 4353.739840238076, -221.01404917407623, 48760.91167460819, 35931.792668317874, 20588.102410805514, -6570.58585531543, 0.146, 1.014, 0.074, 192.0, 0.0, 0.0, 0.0, 0.0, 0.0, 0.0, 0.0, 0.0, 0.0, 1.695754522105738E9, 0.0, 2023-09-26 13:55:22.105
158.0, 73933.89331506411, 68885.10362924381, -19325.318256058486, -14361.956937546365, 33916.98407137204, 31263.742597549273, -187500.02235174447, 26521.35062472232, 45490.06914974083, 34543.68228240994, 4361.942930453173, -211.7827787140344, 48772.5122299805, 35937.51471489843, 20596.193742298336, -6575.905570495793, 0.146, 1.014, 0.074, 192.0, 0.0, 0.0, 0.0, 0.0, 0.0, 0.0, 0.0, 0.0, 0.0, 1.695754522105747E9, 0.0, 2023-09-26 13:55:22.105
160.0, 73934.60857088669, 68885.68477459965, -19331.688503228248, -14362.873359069034, 33908.31159452338, 31265.933068505892, -187500.02235174447, 26515.62857814176, 45477.75333854596, 34533.623997405055, 4344.217997100115, -227.07137192146445, 48762.92333160917, 35926.294139181875, 20588.772963139174, -6586.92498051226, 0.146, 1.014, 0.074, 192.0, 0.0, 0.0, 0.0, 0.0, 0.0, 0.0, 0.0, 0.0, 0.0, 1.695754522105756E9, 0.0, 2023-09-26 13:55:22.105
162.0, 73956.46857696398, 68905.80134460943, -19308.845020394925, -14348.344725173083, 33914.7041934376, 31295.996164798282, -187500.02235174447, 26535.387520240252, 45484.90589677166, 34558.03210235025, 4351.728183237098, -222.39985733030528, 48773.026320102974, 35946.09778476927, 20612.376405283976, -6567.881294236337, 0.14, 1.014, 0.07, 192.0, 2.0, 48.0, 15.5, 88.0, 1.0, 24.0, 0.0, 0.0, 0.0, 1.695754522105765E9, 0.0, 2023-09-26 13:55:22.105
164.0, 73949.53953618283, 68892.8596845698, -19315.327026286963, -14365.376754448029, 33908.37864975675, 31289.38004843951, -187500.02235174447, 26532.414738227697, 45498.540460889395, 34569.02916062226, 4362.524075809011, -218.28713635052878, 48777.429613760665, 35959.553534931365, 20635.622219517496, -6552.190369628713, 0.14, 1.014, 0.07, 192.0, 0.0, 0.0, 0.0, 0.0, 0.0, 0.0, 0.0, 0.0, 0.0, 1.695754522105775E9, 0.0, 2023-09-26 13:55:22.105
166.0, 73940.01769304487, 68886.02005076648, -19319.43974726674, -14378.072545298643, 33898.52153045196, 31280.75227507976, -187500.02235174447, 26529.754880637513, 45480.81552753634, 34564.98349487585, 4340.641717987266, -238.51546508258167, 48764.420898487675, 35940.30868295535, 20625.09454787905, -6565.959044213181, 0.14, 1.014, 0.07, 192.0, 0.0, 0.0, 0.0, 0.0, 0.0, 0.0, 0.0, 0.0, 0.0, 1.69575452216605E9, 0.0, 2023-09-26 13:55:22.166
168.0, 73954.38986472963, 68898.98406255056, -19295.545732444018, -14365.153237003475, 33914.0559928484, 31287.390743182987, -187500.02235174447, 26527.430299214164, 45495.679437599116, 34554.813451148686, 4352.644604759766, -224.0315346755427, 48765.98552059955, 35968.69539841359, 20642.70772250983, -6560.840494732916, 0.14, 1.014, 0.07, 192.0, 0.0, 0.0, 0.0, 0.0, 0.0, 0.0, 0.0, 0.0, 0.0, 1.695754522166074E9, 0.0, 2023-09-26 13:55:22.166
170.0, 73969.49964398141, 68893.59729213682, -19289.041374807523, -14363.096876513586, 33907.931614867644, 31296.420847942933, -187500.02235174447, 26536.035720829455, 45505.111873759255, 34564.7599774313, 4356.422049572712, -219.13650263983044, 48784.492765008545, 35955.41846220713, 20659.538586084676, -6549.10582889388, 0.14, 1.014, 0.07, 192.0, 0.0, 0.0, 0.0, 0.0, 0.0, 0.0, 0.0, 0.0, 0.0, 1.695754522166083E9, 0.0, 2023-09-26 13:55:22.166
172.0, 73977.1662923296, 68893.82080958138, -19289.39900271881, -14362.538082902203, 33907.931614867644, 31284.03798151469, -187500.02235174447, 26521.551790422418, 45500.641524868195, 34566.14578558753, 4355.259758861036, -219.6729445067578, 48769.00300610102, 35954.92672382912, 20661.013801218727, -6550.156360883279, 0.14, 1.018, 0.068, 192.0, 2.0, 48.0, 15.5, 104.0, 1.0, 16.0, 0.0, 0.0, 0.0, 1.695754522166128E9, 0.0, 2023-09-26 13:55:22.166
174.0, 73986.24110057844, 68905.30960623141, -19279.13955201382, -14357.978327033321, 33919.17454232866, 31300.91354857845, -187500.02235174447, 26543.836479644357, 45513.225556996535, 34570.86200366759, 4359.886569963285, -219.3153165954729, 48787.622009232284, 35959.486479698004, 20667.674621066406, -6544.993107914103, 0.14, 1.018, 0.068, 192.0, 0.0, 0.0, 0.0, 0.0, 0.0, 0.0, 0.0, 0.0, 0.0, 1.695754522166138E9, 0.0, 2023-09-26 13:55:22.166
176.0, 73978.6638592081, 68903.05208004142, -19280.324194469955, -14360.057039267665, 33911.86552189178, 31296.37614445402, -187500.02235174447, 26532.280627760963, 45512.91263257416, 34549.8066603907, 4358.8136862294305, -221.66224976328013, 48780.69296845114, 35954.949075573575, 20670.155664700946, -6540.522759023042, 0.14, 1.018, 0.068, 192.0, 0.0, 0.0, 0.0, 0.0, 0.0, 0.0, 0.0, 0.0, 0.0, 1.695754522166147E9, 0.0, 2023-09-26 13:55:22.166
178.0, 73972.02539110486, 68894.9607485486, -19290.337775985932, -14374.183341763419, 33914.52537948196, 31286.317859449133, -187500.02235174447, 26541.9142296212, 45510.45394068408, 34575.421759536475, 4352.5775495264, -220.2764416070511, 48797.72499772609, 35956.58075291881, 20669.306298411644, -6544.814293958461, 0.14, 1.018, 0.068, 192.0, 0.0, 0.0, 0.0, 0.0, 0.0, 0.0, 0.0, 0.0, 0.0, 1.695754522166156E9, 0.0, 2023-09-26 13:55:22.166
180.0, 73981.10019935372, 68896.14539100473, -19285.688613139228, -14374.764487119257, 33926.260045320996, 31290.698801362374, -187500.02235174447, 26535.566334195893, 45502.27320221344, 34546.006863833296, 4343.748610466553, -229.68652602273536, 48779.41891901719, 35964.13564254471, 20662.399609374956, -6556.548959797497, 0.14, 1.018, 0.068, 192.0, 0.0, 0.0, 0.0, 0.0, 0.0, 0.0, 0.0, 0.0, 0.0, 1.695754522166165E9, 0.0, 2023-09-26 13:55:22.166
182.0, 73986.17404534508, 68891.58563513585, -19280.838284592424, -14366.583748648614, 33922.32613829686, 31289.55886239515, -187500.02235174447, 26553.380674526772, 45510.856272084275, 34571.443149023435, 4351.996404170562, -218.57770902844777, 48806.55393678593, 35943.415575434636, 20667.406400132943, -6544.076686391436, 0.134, 1.012, 0.07200000000000001, 192.0, 2.0, 24.0, 15.5, 80.0, 1.0, 32.0, 0.0, 0.0, 0.0, 1.69575452222494E9, 0.0, 2023-09-26 13:55:22.224
184.0, 73992.09725762573, 68896.6147776383, -19278.826627591447, -14360.392315434494, 33919.889798151235, 31294.185673497403, -187500.02235174447, 26538.986151097557, 45513.13615001871, 34544.93398009944, 4348.911863435729, -221.5504910410036, 48787.0632156209, 35939.50402015496, 20667.56286234413, -6550.178712627735, 0.134, 1.012, 0.07200000000000001, 192.0, 0.0, 0.0, 0.0, 0.0, 0.0, 0.0, 0.0, 0.0, 0.0, 1.695754522224963E9, 0.0, 2023-09-26 13:55:22.224
186.0, 73986.57637674527, 68894.29019621495, -19281.665299137272, -14368.729516116324, 33926.14828659872, 31291.458760673853, -187500.02235174447, 26553.492433249052, 45514.92428957514, 34572.22546007937, 4350.163561125227, -218.28713635052878, 48797.635590748265, 35964.47091871154, 20668.56869084462, -6541.43918054571, 0.134, 1.012, 0.07200000000000001, 192.0, 0.0, 0.0, 0.0, 0.0, 0.0, 0.0, 0.0, 0.0, 0.0, 1.695754522224972E9, 0.0, 2023-09-26 13:55:22.224
188.0, 73993.61717624869, 68897.19592299413, -19269.03656352002, -14365.063830025654, 33926.19299008763, 31300.95825206736, -187500.02235174447, 26537.265066774497, 45515.460731442065, 34567.956276888406, 4351.057630903439, -221.84106371892258, 48798.529660526474, 35962.74983438848, 20665.19357743187, -6543.853168946883, 0.134, 1.012, 0.07200000000000001, 192.0, 0.0, 0.0, 0.0, 0.0, 0.0, 0.0, 0.0, 0.0, 0.0, 1.695754522224982E9, 0.0, 2023-09-26 13:55:22.224
190.0, 73990.0632488803, 68882.19790246463, -19282.44761019321, -14385.94035934691, 33917.587568472336, 31291.704629862863, -187500.02235174447, 26548.82091865789, 45513.53848141891, 34560.49079424034, 4347.973090168606, -224.41151433128292, 48797.38972155926, 35960.84993610978, 20663.159568686435, -6552.637404517818, 0.134, 1.012, 0.07200000000000001, 192.0, 0.0, 0.0, 0.0, 0.0, 0.0, 0.0, 0.0, 0.0, 0.0, 1.695754522224991E9, 0.0, 2023-09-26 13:55:22.224
192.0, 73995.94175767204, 68879.78391406345, -19285.24157825012, -14382.632301167525, 33918.32517603936, 31295.14679850898, -187500.02235174447, 26535.09694756233, 45500.48506265701, 34539.10017479661, 4335.701982462643, -238.00137496010962, 48786.303256309424, 35924.595406603265, 20649.36854235751, -6562.360413355877, 0.134, 1.016, 0.076, 192.0, 2.0, 24.0, 15.5, 96.0, 1.0, 48.0, 0.0, 0.0, 0.0, 1.695754522225E9, 0.0, 2023-09-26 13:55:22.225
194.0, 74012.1244206577, 68892.43500142515, -19273.417505433263, -14373.713955129857, 33931.15507735671, 31292.978679296815, -187500.02235174447, 26543.903534877725, 45510.073961028334, 34555.998093604816, 4341.222863343103, -225.19382538721865, 48801.971829172595, 35957.63128490821, 20658.13042618399, -6559.655852276785, 0.134, 1.016, 0.076, 192.0, 0.0, 0.0, 0.0, 0.0, 0.0, 0.0, 0.0, 0.0, 0.0, 1.695754522225042E9, 0.0, 2023-09-26 13:55:22.225
196.0, 74003.89897869814, 68894.64782412622, -19274.691554867215, -14371.970519062343, 33935.35720531431, 31296.24203398729, -187500.02235174447, 26537.466232474595, 45514.85723434177, 34570.79494843423, 4346.229654101093, -221.41638057427176, 48806.55393678593, 35970.14826180318, 20668.881615266993, -6551.586872528419, 0.134, 1.016, 0.076, 192.0, 0.0, 0.0, 0.0, 0.0, 0.0, 0.0, 0.0, 0.0, 0.0, 1.695754522286582E9, 0.0, 2023-09-26 13:55:22.286
198.0, 74013.33141485827, 68898.1123445168, -19270.377668187342, -14364.303870714173, 33942.53211528446, 31297.20315899887, -187500.02235174447, 26545.95989536761, 45521.2945367449, 34566.50341349881, 4349.33654658038, -218.19772937270756, 48807.85033796434, 35959.978218076016, 20672.122618213012, -6548.524683538042, 0.134, 1.016, 0.076, 192.0, 0.0, 0.0, 0.0, 0.0, 0.0, 0.0, 0.0, 0.0, 0.0, 1.695754522286606E9, 0.0, 2023-09-26 13:55:22.286
200.0, 73999.85331295173, 68877.68285008465, -19294.38344173234, -14389.315472759661, 33908.6021672013, 31277.48892038929, -187500.02235174447, 26521.44003170014, 45506.028295281925, 34554.522878470765, 4332.058648116427, -233.35221211340573, 48810.89017521026, 35955.73138662951, 20651.335495869578, -6564.081497678936, 0.134, 1.016, 0.076, 192.0, 0.0, 0.0, 0.0, 0.0, 0.0, 0.0, 0.0, 0.0, 0.0, 1.695754522286615E9, 0.0, 2023-09-26 13:55:22.286
202.0, 74024.73080453048, 68898.58173115036, -19268.522473397552, -14368.237777738308, 33932.22796109056, 31299.036002044202, -187500.02235174447, 26540.081386575865, 45507.45880692707, 34557.76388141679, 4335.545520251456, -224.92560445375497, 48793.41111104621, 35950.81400284934, 20656.409341860934, -6558.717079009662, 0.132, 1.014, 0.07200000000000001, 192.0, 2.0, 16.0, 15.5, 88.0, 1.0, 32.0, 0.0, 0.0, 0.0, 1.695754522286624E9, 0.0, 2023-09-26 13:55:22.286
204.0, 74025.96015047553, 68899.67696662867, -19267.71781059716, -14361.196978234886, 33941.72745248407, 31301.986432312304, -187500.02235174447, 26540.081386575865, 45513.38201920772, 34570.72789320086, 4345.670860489709, -217.57188052795894, 48811.42661707719, 35954.77026161793, 20671.161493201434, -6544.590776513908, 0.132, 1.014, 0.07200000000000001, 192.0, 0.0, 0.0, 0.0, 0.0, 0.0, 0.0, 0.0, 0.0, 0.0, 1.695754522286634E9, 0.0, 2023-09-26 13:55:22.286
206.0, 74004.99421417645, 68873.59248084933, -19292.170619031265, -14386.521504702749, 33920.11331559579, 31281.914565791438, -187500.02235174447, 26535.05224407342, 45502.16144349116, 34565.54228848723, 4333.846787672852, -226.13259865434156, 48815.18171014568, 35947.952979559064, 20662.578423330597, -6550.648099261296, 0.132, 1.014, 0.07200000000000001, 192.0, 0.0, 0.0, 0.0, 0.0, 0.0, 0.0, 0.0, 0.0, 0.0, 1.695754522286643E9, 0.0, 2023-09-26 13:55:22.286
208.0, 74013.24200788046, 68880.38741116374, -19291.455363208697, -14380.620644166547, 33922.974338886066, 31286.47432166032, -187500.02235174447, 26532.39238648324, 45499.83686206781, 34554.00878834829, 4319.496967732545, -237.0178982040761, 48806.017494919004, 35919.40980188964, 20645.23346963328, -6563.098020922902, 0.132, 1.014, 0.07200000000000001, 192.0, 0.0, 0.0, 0.0, 0.0, 0.0, 0.0, 0.0, 0.0, 0.0, 1.695754522286652E9, 0.0, 2023-09-26 13:55:22.286
210.0, 74013.73374625847, 68880.94620477513, -19290.114258541376, -14376.977309820333, 33922.884931908244, 31288.91066180595, -187500.02235174447, 26533.420566728186, 45486.82814679482, 34558.27797153926, 4321.866252644808, -237.48728483763753, 48800.40720706072, 35939.61577887723, 20646.574574300597, -6561.131067410835, 0.132, 1.014, 0.07200000000000001, 192.0, 0.0, 0.0, 0.0, 0.0, 0.0, 0.0, 0.0, 0.0, 0.0, 1.69575452228666E9, 0.0, 2023-09-26 13:55:22.286
212.0, 74028.39649062115, 68885.08127749935, -19281.978223559647, -14369.020088794243, 33939.84990594982, 31293.3363072081, -187500.02235174447, 26534.180526039665, 45506.72119936004, 34587.871681198085, 4338.317136563914, -222.71278175267958, 48816.90279446874, 35947.6847586256, 20657.459873850334, -6547.876482948838, 0.134, 1.014, 0.074, 192.0, 2.0, 24.0, 15.5, 88.0, 1.0, 40.0, 0.0, 0.0, 0.0, 1.695754522345476E9, 0.0, 2023-09-26 13:55:22.345
214.0, 74024.95432197503, 68887.51761764499, -19288.01319456258, -14374.205693507874, 33933.90434192471, 31284.797940826174, -187500.02235174447, 26528.68199690366, 45502.67553361363, 34570.817300178685, 4336.081962118383, -219.3376683399282, 48810.018457176506, 35946.634226636204, 20646.46281557832, -6553.419715573754, 0.134, 1.014, 0.074, 192.0, 0.0, 0.0, 0.0, 0.0, 0.0, 0.0, 0.0, 0.0, 0.0, 1.695754522345498E9, 0.0, 2023-09-26 13:55:22.345
216.0, 74024.61904580821, 68887.763486834, -19292.170619031265, -14374.540969674705, 33934.48548728055, 31284.23914721479, -187500.02235174447, 26538.472060975084, 45500.015676023446, 34560.826070407165, 4329.376438781791, -226.06554342097564, 48808.94557344265, 35914.49241810947, 20641.768949242705, -6562.427468589243, 0.134, 1.014, 0.074, 192.0, 0.0, 0.0, 0.0, 0.0, 0.0, 0.0, 0.0, 0.0, 0.0, 1.695754522345508E9, 0.0, 2023-09-26 13:55:22.345
218.0, 74027.1224411872, 68886.44473391114, -19290.561293430485, -14377.983138320822, 33940.98984491704, 31270.917507519425, -187500.02235174447, 26523.116412534288, 45497.44522541109, 34554.96991335987, 4329.398790526247, -222.60102303040304, 48806.598640274846, 35933.7819735744, 20642.595963787553, -6563.008613945081, 0.134, 1.014, 0.074, 192.0, 0.0, 0.0, 0.0, 0.0, 0.0, 0.0, 0.0, 0.0, 0.0, 1.695754522345544E9, 0.0, 2023-09-26 13:55:22.345
220.0, 74022.78620276287, 68892.14442874723, -19299.077308067957, -14374.764487119257, 33929.23282733355, 31280.416998912933, -187500.02235174447, 26533.48762196155, 45503.927231303125, 34569.16327108899, 4326.42600851369, -228.27836612205104, 48822.84835849385, 35917.73342105549, 20628.08968163606, -6572.552808827497, 0.134, 1.014, 0.074, 192.0, 0.0, 0.0, 0.0, 0.0, 0.0, 0.0, 0.0, 0.0, 0.0, 1.695754522345553E9, 0.0, 2023-09-26 13:55:22.345
222.0, 74020.57338006179, 68889.7080886016, -19281.77705785955, -14360.571129390137, 33943.873219951776, 31293.313955463644, -187500.02235174447, 26528.90551434821, 45485.46469038304, 34576.85227118162, 4325.598993968844, -222.33280209693936, 48801.345980327846, 35940.465145166534, 20630.146042125947, -6564.0591459344805, 0.136, 1.016, 0.076, 192.0, 2.0, 32.0, 15.5, 96.0, 1.0, 48.0, 0.0, 0.0, 0.0, 1.695754522345563E9, 0.0, 2023-09-26 13:55:22.345
224.0, 74014.2254846365, 68882.93551003165, -19292.77411613156, -14370.51765567275, 33932.22796109056, 31283.546243136676, -187500.02235174447, 26540.48371797606, 45485.66585608314, 34594.0631144122, 4329.845825415352, -213.16858687026345, 48821.93193697118, 35948.46706968154, 20639.153795141436, -6555.587834785919, 0.136, 1.016, 0.076, 192.0, 0.0, 0.0, 0.0, 0.0, 0.0, 0.0, 0.0, 0.0, 0.0, 1.695754522345572E9, 0.0, 2023-09-26 13:55:22.345
226.0, 74025.04372895286, 68904.39318470874, -19277.91020606878, -14348.680001339913, 33941.16865887269, 31304.109848035558, -187500.02235174447, 26534.605209184316, 45473.70767279955, 34586.530576530764, 4327.454188758635, -212.72155198115732, 48799.42373030469, 35934.944264286074, 20632.537678782664, -6559.544093554508, 0.136, 1.016, 0.076, 192.0, 0.0, 0.0, 0.0, 0.0, 0.0, 0.0, 0.0, 0.0, 0.0, 1.695754522406252E9, 0.0, 2023-09-26 13:55:22.406
228.0, 74025.24489465296, 68908.61766441079, -19277.507874668583, -14347.942393772888, 33945.48254555256, 31310.703612649875, -187500.02235174447, 26553.35832278232, 45484.10123397127, 34622.963919992915, 4338.540654008467, -189.67690344773573, 48831.699649298156, 35980.83239565282, 20640.65136201994, -6544.143741624802, 0.136, 1.016, 0.076, 192.0, 0.0, 0.0, 0.0, 0.0, 0.0, 0.0, 0.0, 0.0, 0.0, 1.695754522406285E9, 0.0, 2023-09-26 13:55:22.406
230.0, 74035.7725662914, 68924.59916169634, -19265.415580918263, -14327.64700980747, 33951.00342643302, 31324.204066300877, -187500.02235174447, 26546.317523278896, 45475.3840536337, 34607.98825120786, 4336.171369096204, -191.68856044871336, 48812.588907788864, 35951.05987203835, 20642.5736120431, -6542.422657301743, 0.136, 1.016, 0.076, 192.0, 0.0, 0.0, 0.0, 0.0, 0.0, 0.0, 0.0, 0.0, 0.0, 1.6957545224063E9, 0.0, 2023-09-26 13:55:22.406
232.0, 74029.89405749965, 68926.25319078602, -19264.38740067332, -14326.64118130698, 33958.692426525646, 31321.275987777233, -187500.02235174447, 26557.560450739915, 45482.64837058167, 34642.52169639131, 4347.034316901483, -167.81689737044542, 48829.576233574895, 35974.46214848306, 20658.5774610731, -6523.714247192651, 0.136, 1.01, 0.07, 192.0, 2.0, 32.0, 15.5, 72.0, 1.0, 24.0, 0.0, 0.0, 0.0, 1.695754522406311E9, 0.0, 2023-09-26 13:55:22.406
234.0, 74033.38092963469, 68934.79155716796, -19268.075438508444, -14322.282591138195, 33965.733226029064, 31320.918359865947, -187500.02235174447, 26550.519651236493, 45478.22272517953, 34634.09508873166, 4342.0275261434945, -178.34456900889506, 48819.942631714664, 35968.89656411369, 20654.66590579342, -6530.419770529244, 0.136, 1.01, 0.07, 192.0, 0.0, 0.0, 0.0, 0.0, 0.0, 0.0, 0.0, 0.0, 0.0, 1.695754522406321E9, 0.0, 2023-09-26 13:55:22.406
236.0, 74036.08549071378, 68939.59718222584, -19268.880101308838, -14330.865661009035, 33947.516554297996, 31315.0398510742, -187500.02235174447, 26565.830596188378, 45486.62698109472, 34657.05033028726, 4347.436648301679, -172.66722591724707, 48829.442123108165, 35979.424235752136, 20657.012838961225, -6524.608316970864, 0.136, 1.01, 0.07, 192.0, 0.0, 0.0, 0.0, 0.0, 0.0, 0.0, 0.0, 0.0, 0.0, 1.695754522406331E9, 0.0, 2023-09-26 13:55:22.406
238.0, 74025.84839175324, 68933.49515598956, -19271.428200176742, -14329.882184253, 33944.007330418506, 31318.72788890933, -187500.02235174447, 26551.413721014706, 45480.21203043604, 34648.1766877385, 4345.648508745255, -174.3659584958504, 48818.959154958626, 35961.40872972116, 20648.407417345934, -6529.570404239942, 0.136, 1.01, 0.07, 192.0, 0.0, 0.0, 0.0, 0.0, 0.0, 0.0, 0.0, 0.0, 0.0, 1.69575452240634E9, 0.0, 2023-09-26 13:55:22.406
240.0, 74003.04961240884, 68912.6633301572, -19295.836305121935, -14350.803417063167, 33927.355280799304, 31300.95825206736, -187500.02235174447, 26554.520613493994, 45470.39961462017, 34639.727728334394, 4330.42697077119, -179.90919112076654, 48809.34790484285, 35950.67989238261, 20635.37635032849, -6541.617994501352, 0.136, 1.01, 0.07, 192.0, 0.0, 0.0, 0.0, 0.0, 0.0, 0.0, 0.0, 0.0, 0.0, 1.695754522406383E9, 0.0, 2023-09-26 13:55:22.406
242.0, 74027.99415922097, 68935.77503392399, -19279.877159580847, -14328.898707496966, 33945.549600785926, 31326.57335121314, -187500.02235174447, 26546.742206423547, 45461.99535870497, 34622.338071148166, 4327.700057947643, -185.34066502340616, 48808.56559378691, 35938.8334678213, 20632.448271804842, -6540.902738678782, 0.136, 1.01, 0.076, 192.0, 2.0, 32.0, 15.5, 72.0, 1.0, 48.0, 0.0, 0.0, 0.0, 1.695754522466072E9, 0.0, 2023-09-26 13:55:22.466
244.0, 74030.63166506668, 68941.29591480445, -19276.412639190276, -14322.908439982944, 33955.49612706854, 31330.90958963747, -187500.02235174447, 26562.276668819984, 45488.549231117875, 34664.202888512955, 4347.973090168606, -162.85481010136726, 48834.91830049972, 35958.81592736434, 20646.61927778951, -6518.238069801101, 0.136, 1.01, 0.076, 192.0, 0.0, 0.0, 0.0, 0.0, 0.0, 0.0, 0.0, 0.0, 0.0, 1.695754522466109E9, 0.0, 2023-09-26 13:55:22.466
246.0, 74037.71716805901, 68939.59718222584, -19278.62546189135, -14322.617867305025, 33956.50195556902, 31326.886275635516, -187500.02235174447, 26552.53130823747, 45477.149841445666, 34648.04257727177, 4343.793313955464, -172.04137707249845, 48832.70547779864, 35972.04816008188, 20645.702856266842, -6526.463511760654, 0.136, 1.01, 0.076, 192.0, 0.0, 0.0, 0.0, 0.0, 0.0, 0.0, 0.0, 0.0, 0.0, 1.69575452246612E9, 0.0, 2023-09-26 13:55:22.466
248.0, 74048.26719144192, 68941.45237701564, -19281.844113092913, -14320.44974809286, 33957.88776372525, 31331.133107082023, -187500.02235174447, 26567.037590388965, 45481.88841127019, 34672.85301361716, 4352.331680337391, -158.29505423248463, 48831.14085568677, 35960.22408726503, 20650.843757491562, -6514.594735454886, 0.136, 1.01, 0.076, 192.0, 0.0, 0.0, 0.0, 0.0, 0.0, 0.0, 0.0, 0.0, 0.0, 1.695754522466129E9, 0.0, 2023-09-26 13:55:22.466
250.0, 74042.83571753929, 68939.79834792594, -19291.0530318085, -14326.30590514015, 33939.20170536062, 31321.991243599805, -187500.02235174447, 26552.263087304007, 45467.20331516306, 34649.6295511281, 4338.138322608272, -166.69931014768008, 48825.84349225086, 35942.8344300788, 20628.93904792536, -6532.610241485863, 0.136, 1.01, 0.076, 192.0, 0.0, 0.0, 0.0, 0.0, 0.0, 0.0, 0.0, 0.0, 0.0, 1.695754522466139E9, 0.0, 2023-09-26 13:55:22.466
252.0, 74038.96886574851, 68945.94507765115, -19282.80523810449, -14314.59359104557, 33946.2648566085, 31325.366357012554, -187500.02235174447, 26555.705255950124, 45475.696978056076, 34643.035786513785, 4348.531883779989, -151.47777217361596, 48825.70938178413, 35949.495249926484, 20629.430786303375, -6524.697723948685, 0.138, 1.012, 0.068, 192.0, 2.0, 40.0, 15.5, 80.0, 1.0, 16.0, 0.0, 0.0, 0.0, 1.695754522466157E9, 0.0, 2023-09-26 13:55:22.466
254.0, 74044.86972628471, 68945.87802241779, -19279.608938647383, -14312.73839625578, 33952.14336540024, 31316.47036271934, -187500.02235174447, 26553.559488482417, 45477.41806237913, 34660.40309195556, 4349.694174491665, -149.60022563937017, 48839.589815090876, 35962.10163379928, 20632.381216571477, -6527.514043750053, 0.138, 1.012, 0.068, 192.0, 0.0, 0.0, 0.0, 0.0, 0.0, 0.0, 0.0, 0.0, 0.0, 1.695754522466167E9, 0.0, 2023-09-26 13:55:22.466
